Sample Index, EXG Channel 0, EXG Channel 1, EXG Channel 2, EXG Channel 3, EXG Channel 4, EXG Channel 5, EXG Channel 6, EXG Channel 7, Accel Channel 0, Accel Channel 1, Accel Channel 2, Not Used, Digital Channel 0 (D11), Digital Channel 1 (D12), Digital Channel 2 (D13), Digital Channel 3 (D17), Not Used.1, Digital Channel 4 (D18), Analog Channel 0, Analog Channel 1, Analog Channel 2, Timestamp, Marker Channel, Timestamp (Formatted)
18.0,58635.42063658484,102567.5061425574,-134705.55957622046,-562.5487044511682,-447418.1768200609,-613802.0591499876,-613991.6019429687,-614129.5569097468,0.0,0.0,0.0,192.0,0.0,0.0,0.0,0.0,0.0,0.0,0.0,0.0,0.0,1747524789.55348,0.0, 2025-05-17 16:33:09.553
19.0,58540.64924009434,102565.27096811189,-134876.6845317703,-600.6360770030113,-447490.50706511823,-613779.6179985545,-613969.0713845576,-614107.3839792472,0.162,0.26,0.938,192.0,5.0,16.0,8.0,32.0,29.0,80.0,0.0,0.0,0.0,1747524789.5535865,0.0, 2025-05-17 16:33:09.553
20.0,58484.76987895607,102600.22909643996,-135010.52677756868,-601.26192584776,-447526.1804492689,-613746.0009748937,-613935.7225818303,-614073.7669555864,0.162,0.26,0.938,192.0,0.0,0.0,0.0,0.0,0.0,0.0,0.0,0.0,0.0,1747524789.5536451,0.0, 2025-05-17 16:33:09.553
21.0,58429.78458759601,102635.2766317459,-135143.65376754449,-599.6526002469778,-447562.5690892421,-613705.6784278963,-613895.7576627443,-614033.3550016112,0.162,0.26,0.938,192.0,0.0,0.0,0.0,0.0,0.0,0.0,0.0,0.0,0.0,1747524789.5536993,0.0, 2025-05-17 16:33:09.553
22.0,58334.29793528294,102629.10755027624,-135316.7456766064,-640.064554222173,-447638.02857852326,-613681.2703229511,-613871.6177787326,-614009.3045245772,0.162,0.26,0.938,192.0,0.0,0.0,0.0,0.0,0.0,0.0,0.0,0.0,0.0,1747524789.5537796,0.0, 2025-05-17 16:33:09.553
23.0,58237.38077132473,102623.8325385848,-135490.7316554465,-680.1188802860833,-447715.6338352721,-613656.6834040503,-613846.7626388982,-613984.6281986986,0.162,0.26,0.938,192.0,0.0,0.0,0.0,0.0,0.0,0.0,0.0,0.0,0.0,1747524789.5538597,0.0, 2025-05-17 16:33:09.553
24.0,58180.78615436389,102657.1813413121,-135624.48449426706,-682.9799035763626,-447755.8669752916,-613626.5532525246,-613816.5430803946,-613954.5874541507,0.162,0.26,0.938,192.0,0.0,0.0,0.0,0.0,0.0,0.0,0.0,0.0,0.0,1747524789.5539095,0.0, 2025-05-17 16:33:09.553
25.0,58131.16528167312,102698.66617902117,-135749.74367019458,-678.062519796195,-447788.76874312985,-613584.8896008598,-613774.87942873,-613912.7449885303,0.162,0.26,0.938,192.0,0.0,0.0,0.0,0.0,0.0,0.0,0.0,0.0,0.0,1747524789.5539608,0.0, 2025-05-17 16:33:09.553
26.0,58040.05957127328,102700.45431857755,-135918.90167223237,-714.0935318581501,-447865.3011161448,-613557.6204726244,-613747.5208935167,-613885.386453317,0.162,0.26,0.938,192.0,0.0,0.0,0.0,0.0,0.0,0.0,0.0,0.0,0.0,1747524789.554032,0.0, 2025-05-17 16:33:09.554
27.0,57938.04620957926,102690.0831091503,-136098.25206974175,-763.7144045489317,-447954.0822451213,-613536.8780537698,-613726.9572886179,-613864.8228484181,0.162,0.26,0.938,192.0,0.0,0.0,0.0,0.0,0.0,0.0,0.0,0.0,0.0,1747524789.5540817,0.0, 2025-05-17 16:33:09.554
28.0,57875.28251114876,102720.21326067609,-136239.157466788,-776.4101953995462,-448002.4514201226,-613503.0822161535,-613692.80382309,-613830.8481968461,0.162,0.26,0.938,192.0,0.0,0.0,0.0,0.0,0.0,0.0,0.0,0.0,0.0,1747524789.55416,0.0, 2025-05-17 16:33:09.554
29.0,57826.913336147474,102765.63200540924,-136365.66834040504,-774.9796837544064,-448036.6048856503,-613466.0677273355,-613655.9681482278,-613793.7443010503,0.15,0.274,0.942,192.0,4.0,176.0,8.0,144.0,29.0,112.0,0.0,0.0,0.0,1747524789.5542428,0.0, 2025-05-17 16:33:09.554
30.0,57743.13899792898,102774.57270319136,-136525.6174237272,-805.4674631914453,-448107.14699115127,-613442.9113200798,-613632.364706083,-613770.4090798389,0.15,0.274,0.942,192.0,0.0,0.0,0.0,0.0,0.0,0.0,0.0,0.0,0.0,1747524789.5543292,0.0, 2025-05-17 16:33:09.554
31.0,57640.49978739021,102763.754458875,-136704.34197239185,-854.6413009931208,-448196.9115968837,-613418.6820290902,-613608.4930430047,-613746.1797888493,0.15,0.274,0.942,192.0,0.0,0.0,0.0,0.0,0.0,0.0,0.0,0.0,0.0,1747524789.554408,0.0, 2025-05-17 16:33:09.554
32.0,57568.795391177584,102784.13924981824,-136851.86348579687,-875.0260919363609,-448255.92020224576,-613382.1145751614,-613572.3726239649,-613710.2381837652,0.15,0.274,0.942,192.0,0.0,0.0,0.0,0.0,0.0,0.0,0.0,0.0,0.0,1747524789.5545287,0.0, 2025-05-17 16:33:09.554
33.0,57526.3270767125,102831.5249480635,-136971.75824305514,-869.5722662892659,-448287.2126444832,-613343.0437258534,-613533.3911816349,-613671.1673344574,0.15,0.274,0.942,192.0,0.0,0.0,0.0,0.0,0.0,0.0,0.0,0.0,0.0,1747524789.5546165,0.0, 2025-05-17 16:33:09.554
34.0,57452.02987814306,102848.69108780516,-137125.44883792984,-895.5002898574221,-448349.2610870911,-613316.221632507,-613506.300867355,-613643.9876131997,0.15,0.274,0.942,192.0,0.0,0.0,0.0,0.0,0.0,0.0,0.0,0.0,0.0,1747524789.5550358,0.0, 2025-05-17 16:33:09.555
35.0,57349.48007458211,102840.73386677908,-137304.2627935723,-948.4292207275892,-448438.57865793456,-613295.747434586,-613485.5584485005,-613623.6922292343,0.15,0.274,0.942,192.0,0.0,0.0,0.0,0.0,0.0,0.0,0.0,0.0,0.0,1747524789.5551257,0.0, 2025-05-17 16:33:09.555
36.0,57268.29853872044,102855.21779718612,-137461.79788849328,-980.079290876304,-448505.7232982783,-613264.9914342156,-613454.8918551079,-613592.6680079303,0.15,0.274,0.942,192.0,0.0,0.0,0.0,0.0,0.0,0.0,0.0,0.0,0.0,1747524789.5552096,0.0, 2025-05-17 16:33:09.555
37.0,57219.92936371915,102901.70942565316,-137586.78884348736,-979.0064071424492,-448542.6483801184,-613217.8739569037,-613408.0425987295,-613545.7293445742,0.15,0.274,0.942,192.0,0.0,0.0,0.0,0.0,0.0,0.0,0.0,0.0,0.0,1747524789.5552833,0.0, 2025-05-17 16:33:09.555
38.0,57152.158874530665,102927.01160037656,-137731.00229871302,-996.7983957288736,-448599.3324040571,-613187.2967704888,-613377.3760053368,-613515.0627511815,0.15,0.274,0.942,192.0,0.0,0.0,0.0,0.0,0.0,0.0,0.0,0.0,0.0,1747524789.55536,0.0, 2025-05-17 16:33:09.555
39.0,57052.29128030435,102919.5908212174,-137907.044638043,-1045.9722335305494,-448687.6664981445,-613171.4717354145,-613361.5509702625,-613499.5059370406,0.144,0.268,0.952,192.0,4.0,128.0,8.0,96.0,29.0,192.0,0.0,0.0,0.0,1747524789.555444,0.0, 2025-05-17 16:33:09.555
40.0,56968.42753510804,102928.17389108824,-138066.90431438736,-1081.0197688364708,-448760.3543711131,-613142.682688556,-613332.8513303818,-613470.6274832044,0.144,0.268,0.952,192.0,0.0,0.0,0.0,0.0,0.0,0.0,0.0,0.0,0.0,1747524789.555539,0.0, 2025-05-17 16:33:09.555
41.0,56922.82997641921,102974.84433351092,-138189.39187400244,-1077.8011176349066,-448794.95487153,-613097.9791996455,-613288.5054693825,-613425.9239942938,0.144,0.268,0.952,192.0,0.0,0.0,0.0,0.0,0.0,0.0,0.0,0.0,0.0,1747524789.5556154,0.0, 2025-05-17 16:33:09.555
42.0,56864.80484781323,103007.92491530476,-138325.02225935727,-1087.7252921730628,-448844.21811630944,-613072.0511760773,-613262.5774458144,-613400.1747846812,0.144,0.268,0.952,192.0,0.0,0.0,0.0,0.0,0.0,0.0,0.0,0.0,0.0,1747524789.5556917,0.0, 2025-05-17 16:33:09.555
43.0,56767.35124198809,103001.12998499036,-138499.9917149534,-1135.6474322852412,-448934.2509429754,-613045.9443385535,-613236.5600152684,-613373.7997262239,0.144,0.268,0.952,192.0,0.0,0.0,0.0,0.0,0.0,0.0,0.0,0.0,0.0,1747524789.5557704,0.0, 2025-05-17 16:33:09.555
44.0,56678.48070603379,103005.15329899231,-138665.9310657896,-1172.0360722584812,-449015.1642579037,-613022.6091173422,-613213.4036080127,-613350.7327259461,0.144,0.268,0.952,192.0,0.0,0.0,0.0,0.0,0.0,0.0,0.0,0.0,0.0,1747524789.5558925,0.0, 2025-05-17 16:33:09.555
45.0,56628.23398449826,103046.36991576792,-138792.7101603401,-1170.8737815468053,-449058.3478281913,-612984.4323378125,-613175.1374215052,-613312.7347603721,0.144,0.268,0.952,192.0,0.0,0.0,0.0,0.0,0.0,0.0,0.0,0.0,0.0,1747524789.555974,0.0, 2025-05-17 16:33:09.555
46.0,56577.36141411799,103085.44076507578,-138917.34348742288,-1170.6949675911628,-449102.0678403458,-612948.7589536619,-613139.3746303767,-613276.8825622657,0.144,0.268,0.952,192.0,0.0,0.0,0.0,0.0,0.0,0.0,0.0,0.0,0.0,1747524789.55606,0.0, 2025-05-17 16:33:09.556
47.0,56485.004006028656,103086.51364880965,-139081.40529172483,-1207.3518284978663,-449183.24937620753,-612927.658906896,-613118.1851766331,-613255.7825155,0.144,0.268,0.952,192.0,0.0,0.0,0.0,0.0,0.0,0.0,0.0,0.0,0.0,1747524789.556168,0.0, 2025-05-17 16:33:09.556
48.0,56388.35506300391,103086.51364880965,-139246.09294487155,-1246.690898739207,-449265.2355748696,-612910.4033601765,-613100.7508159579,-613238.4375618026,0.144,0.268,0.952,192.0,0.0,0.0,0.0,0.0,0.0,0.0,0.0,0.0,0.0,1747524789.5562472,0.0, 2025-05-17 16:33:09.556
49.0,56331.0451902205,103123.25991669417,-139373.14026035552,-1248.3002243399887,-449308.8661800464,-612880.5414295843,-613071.0676993213,-613208.6650381881,0.144,0.268,0.952,192.0,0.0,0.0,0.0,0.0,0.0,0.0,0.0,0.0,0.0,1747524789.5564263,0.0, 2025-05-17 16:33:09.556
50.0,56282.40779428576,103168.76806840516,-139491.33628503518,-1239.5383405135085,-449342.6620176628,-612837.8048941857,-613028.5099778784,-613166.3755376787,0.174,0.242,0.962,192.0,5.0,112.0,7.0,144.0,30.0,16.0,0.0,0.0,0.0,1747524789.5565083,0.0, 2025-05-17 16:33:09.556
51.0,56196.48768859956,103180.39097552192,-139644.04340315383,-1261.8900849688157,-449412.1312394299,-612816.0789985751,-613006.6052683122,-613144.3814211347,0.174,0.242,0.962,192.0,0.0,0.0,0.0,0.0,0.0,0.0,0.0,0.0,0.0,1747524789.556609,0.0, 2025-05-17 16:33:09.556
52.0,56094.92136179464,103176.9041033869,-139810.34038190133,-1296.937620274737,-449496.7996474266,-612791.2238587409,-612982.197163367,-613119.6156882782,0.174,0.242,0.962,192.0,0.0,0.0,0.0,0.0,0.0,0.0,0.0,0.0,0.0,1747524789.5566964,0.0, 2025-05-17 16:33:09.556
53.0,56028.40257029564,103205.87196420098,-139941.32160440943,-1296.222364452167,-449547.4039968734,-612763.9547305054,-612954.8386281537,-613092.4359670206,0.174,0.242,0.962,192.0,0.0,0.0,0.0,0.0,0.0,0.0,0.0,0.0,0.0,1747524789.5567842,0.0, 2025-05-17 16:33:09.556
54.0,55981.732127872965,103254.95639502484,-140049.77226850658,-1274.8540967528936,-449575.5671948871,-612732.662288268,-612923.4567789384,-613061.0541178053,0.174,0.242,0.962,192.0,0.0,0.0,0.0,0.0,0.0,0.0,0.0,0.0,0.0,1747524789.556872,0.0, 2025-05-17 16:33:09.556
55.0,55897.51075476537,103270.69202312136,-140191.66114230885,-1283.973608490659,-449635.2910560717,-612701.9062878974,-612892.3431506567,-613030.1193034792,0.174,0.242,0.962,192.0,0.0,0.0,0.0,0.0,0.0,0.0,0.0,0.0,0.0,1747524789.5569572,0.0, 2025-05-17 16:33:09.556
56.0,55792.09992791414,103266.75811609723,-140352.23607447578,-1310.5274809035636,-449712.9857197983,-612688.4058342464,-612878.7532900278,-613016.171814939,0.174,0.242,0.962,192.0,0.0,0.0,0.0,0.0,0.0,0.0,0.0,0.0,0.0,1747524789.5570412,0.0, 2025-05-17 16:33:09.557
57.0,55716.99806654431,103292.7755466432,-140481.87619231656,-1305.520690145575,-449758.4044645315,-612666.8587525915,-612857.206208373,-612994.8929542176,0.174,0.242,0.962,192.0,0.0,0.0,0.0,0.0,0.0,0.0,0.0,0.0,0.0,1747524789.5571213,0.0, 2025-05-17 16:33:09.557
58.0,55668.5394845652,103344.899814713,-140585.1412517001,-1272.4401083517205,-449776.19645311794,-612621.7082287918,-612812.2344985288,-612950.1000583292,0.174,0.242,0.962,192.0,0.0,0.0,0.0,0.0,0.0,0.0,0.0,0.0,0.0,1747524789.5571992,0.0, 2025-05-17 16:33:09.557
59.0,55589.3249022156,103367.25155916827,-140716.92713700858,-1266.0922129264134,-449821.5257908733,-612587.6441702419,-612777.9022190454,-612915.7677788459,0.174,0.242,0.962,192.0,0.0,0.0,0.0,0.0,0.0,0.0,0.0,0.0,0.0,1747524789.557305,0.0, 2025-05-17 16:33:09.557
60.0,55482.48356371922,103363.4964660998,-140874.73045286303,-1281.8278410229495,-449892.2467103299,-612570.0309956111,-612760.5572653482,-612898.4228251484,0.206,0.206,0.968,192.0,6.0,112.0,6.0,112.0,30.0,64.0,0.0,0.0,0.0,1747524789.5573852,0.0, 2025-05-17 16:33:09.557
61.0,55397.09989989995,103379.32150117416,-141014.11593128633,-1274.58587581943,-449938.1124899522,-612546.069925555,-612737.0432301812,-612875.0876039371,0.206,0.206,0.968,192.0,0.0,0.0,0.0,0.0,0.0,0.0,0.0,0.0,0.0,1747524789.557473,0.0, 2025-05-17 16:33:09.557
62.0,55345.24385276364,103429.03178084276,-141115.68225809126,-1231.581119487419,-449948.12607146817,-612509.9495065153,-612700.7439971857,-612838.8777779195,0.206,0.206,0.968,192.0,0.0,0.0,0.0,0.0,0.0,0.0,0.0,0.0,0.0,1747524789.557574,0.0, 2025-05-17 16:33:09.557
63.0,55271.75131699459,103458.44667654597,-141235.57701534953,-1206.9942005865814,-449977.6303741492,-612486.1672504148,-612676.4252992184,-612814.7378939078,0.206,0.206,0.968,192.0,0.0,0.0,0.0,0.0,0.0,0.0,0.0,0.0,0.0,1747524789.5576544,0.0, 2025-05-17 16:33:09.557
64.0,55164.28412965348,103456.39031605606,-141386.49599391175,-1212.6268401893187,-450037.2648283559,-612466.3189013385,-612656.7557640977,-612794.8001378537,0.206,0.206,0.968,192.0,0.0,0.0,0.0,0.0,0.0,0.0,0.0,0.0,0.0,1747524789.557774,0.0, 2025-05-17 16:33:09.557
65.0,55069.15510525169,103467.83440921718,-141521.94756531093,-1202.6132586733413,-450079.4649218876,-612448.0798778629,-612638.6061476,-612776.5611143782,0.206,0.206,0.968,192.0,0.0,0.0,0.0,0.0,0.0,0.0,0.0,0.0,0.0,1747524789.5578525,0.0, 2025-05-17 16:33:09.557
66.0,55010.32531384532,103513.96840977292,-141622.6198223376,-1153.8864557607717,-450084.56111962337,-612411.8700518453,-612602.575135538,-612740.7983232497,0.206,0.206,0.968,192.0,0.0,0.0,0.0,0.0,0.0,0.0,0.0,0.0,0.0,1747524789.5579307,0.0, 2025-05-17 16:33:09.557
67.0,54942.19719674554,103550.35704974616,-141732.5009980799,-1111.0605133844035,-450095.3793639397,-612381.561086364,-612571.8191351675,-612709.8635089236,0.206,0.206,0.968,192.0,0.0,0.0,0.0,0.0,0.0,0.0,0.0,0.0,0.0,1747524789.5580103,0.0, 2025-05-17 16:33:09.558
68.0,54831.95839309197,103546.2443287664,-141883.6881975756,-1106.947792404627,-450146.16252734215,-612369.044109469,-612559.7491931617,-612697.4359390064,0.206,0.206,0.968,192.0,0.0,0.0,0.0,0.0,0.0,0.0,0.0,0.0,0.0,1747524789.5580883,0.0, 2025-05-17 16:33:09.558
69.0,54730.39206628705,103551.96637534696,-142025.39825742226,-1092.1062340863032,-450188.18380691815,-612345.1724463907,-612535.8775300834,-612673.7430898837,0.206,0.206,0.968,192.0,0.0,0.0,0.0,0.0,0.0,0.0,0.0,0.0,0.0,1747524789.558166,0.0, 2025-05-17 16:33:09.558
70.0,54668.34362367912,103595.86520145716,-142127.14339818282,-1038.5514543713873,-450189.3460976298,-612325.50291127,-612515.9397740293,-612653.8053338296,0.228,0.194,0.964,192.0,7.0,32.0,6.0,16.0,30.0,32.0,0.0,0.0,0.0,1747524789.5582469,0.0, 2025-05-17 16:33:09.558
71.0,54605.4905182708,103639.94284152304,-142227.90506218732,-983.0297211444046,-450186.39566736174,-612298.3231900124,-612489.2964946385,-612626.9832404832,0.228,0.194,0.964,192.0,0.0,0.0,0.0,0.0,0.0,0.0,0.0,0.0,0.0,1747524789.5583315,0.0, 2025-05-17 16:33:09.558
72.0,54499.722063508285,103641.99920201291,-142367.6481685219,-963.5389999793769,-450223.23134222405,-612286.3426549843,-612477.047738677,-612614.555670566,0.228,0.194,0.964,192.0,0.0,0.0,0.0,0.0,0.0,0.0,0.0,0.0,0.0,1747524789.5584106,0.0, 2025-05-17 16:33:09.558
73.0,54391.45021336678,103641.37335316818,-142510.3417051246,-945.2105695260252,-450260.4246449977,-612260.9510732831,-612452.013784887,-612589.7899377096,0.228,0.194,0.964,192.0,0.0,0.0,0.0,0.0,0.0,0.0,0.0,0.0,0.0,1747524789.5584896,0.0, 2025-05-17 16:33:09.558
74.0,54322.33861951096,103678.92428385308,-142614.14320637504,-887.990103720439,-450260.782272909,-612229.032782201,-612419.9166798493,-612558.0504605831,0.228,0.194,0.964,192.0,0.0,0.0,0.0,0.0,0.0,0.0,0.0,0.0,0.0,1747524789.558591,0.0, 2025-05-17 16:33:09.558
75.0,54260.46899085867,103724.25362160846,-142710.16630055505,-821.82894013273,-450250.0534355704,-612192.8229561833,-612383.7962608095,-612521.3935996763,0.228,0.194,0.964,192.0,0.0,0.0,0.0,0.0,0.0,0.0,0.0,0.0,0.0,1747524789.5586708,0.0, 2025-05-17 16:33:09.558
76.0,54159.8861408098,103731.76380774545,-142846.24372079896,-794.7386258528979,-450276.4284940277,-612170.5606187058,-612361.2657023985,-612499.041855221,0.228,0.194,0.964,192.0,0.0,0.0,0.0,0.0,0.0,0.0,0.0,0.0,0.0,1747524789.5587485,0.0, 2025-05-17 16:33:09.558
77.0,54046.428685954656,103727.20405187656,-142995.82159469387,-779.2712186898254,-450317.287482892,-612161.3516999903,-612352.056783683,-612490.1905644168,0.228,0.194,0.964,192.0,0.0,0.0,0.0,0.0,0.0,0.0,0.0,0.0,0.0,1747524789.558849,0.0, 2025-05-17 16:33:09.558
78.0,53968.555208272366,103757.33420340232,-143107.31209603694,-727.6833924869767,-450318.5391805815,-612131.9368042871,-612322.3736670463,-612460.5074477801,0.228,0.194,0.964,192.0,0.0,0.0,0.0,0.0,0.0,0.0,0.0,0.0,0.0,1747524789.55893,0.0, 2025-05-17 16:33:09.558
79.0,53909.36778895471,103806.95507609309,-143196.5402599025,-654.0120427622846,-450298.86964546086,-612106.455815608,-612297.1608993007,-612435.2052730568,0.228,0.194,0.964,192.0,0.0,0.0,0.0,0.0,0.0,0.0,0.0,0.0,0.0,1747524789.5590975,0.0, 2025-05-17 16:33:09.559
80.0,53814.23876455292,103822.06485534488,-143320.7265520962,-612.2589841197711,-450313.9794247126,-612089.0214549329,-612279.7265386255,-612417.6815054037,0.228,0.204,0.956,192.0,7.0,32.0,6.0,96.0,29.0,224.0,0.0,0.0,0.0,1747524789.5591772,0.0, 2025-05-17 16:33:09.559
81.0,53699.9766468974,103819.02501809895,-143464.7611933662,-588.1191001080394,-450347.0600065065,-612071.6765012356,-612262.2027709726,-612399.9789237952,0.228,0.204,0.956,192.0,0.0,0.0,0.0,0.0,0.0,0.0,0.0,0.0,0.0,1747524789.5592637,0.0, 2025-05-17 16:33:09.559
82.0,53610.21204116489,103840.03565788695,-143584.47713666884,-539.8393320845762,-450354.1231577544,-612052.1857800706,-612243.4273056302,-612380.8458305413,0.228,0.204,0.956,192.0,0.0,0.0,0.0,0.0,0.0,0.0,0.0,0.0,0.0,1747524789.5593443,0.0, 2025-05-17 16:33:09.559
83.0,53549.236482290806,103888.40483288823,-143674.33114937917,-463.75399395871096,-450332.0396342325,-612025.453093702,-612216.6946192617,-612353.8449232394,0.228,0.204,0.956,192.0,0.0,0.0,0.0,0.0,0.0,0.0,0.0,0.0,0.0,1747524789.5594215,0.0, 2025-05-17 16:33:09.559
84.0,53460.81298122561,103910.04132152096,-143790.91784845805,-413.4178654453594,-450338.1193087244,-612004.5318608918,-612195.5945724958,-612332.6554694958,0.228,0.204,0.956,192.0,0.0,0.0,0.0,0.0,0.0,0.0,0.0,0.0,0.0,1747524789.5595,0.0, 2025-05-17 16:33:09.559
85.0,53344.405096102375,103905.30275169644,-143935.57833857278,-387.8474697884881,-450370.4846346956,-611995.4123491541,-612186.3856537802,-612323.4465507802,0.228,0.204,0.956,192.0,0.0,0.0,0.0,0.0,0.0,0.0,0.0,0.0,0.0,1747524789.5595834,0.0, 2025-05-17 16:33:09.559
86.0,53244.358687920416,103915.94218205716,-144062.8044680124,-345.2897483455835,-450384.78975114704,-611975.921627989,-612166.8949326152,-612303.8664226374,0.228,0.204,0.956,192.0,0.0,0.0,0.0,0.0,0.0,0.0,0.0,0.0,0.0,1747524789.5596676,0.0, 2025-05-17 16:33:09.559
87.0,53180.52210575606,103961.00329887908,-144150.0656783659,-266.1645729737965,-450361.9015648248,-611947.937243931,-612138.9105485572,-612276.2396664906,0.228,0.204,0.956,192.0,0.0,0.0,0.0,0.0,0.0,0.0,0.0,0.0,0.0,1747524789.5597453,0.0, 2025-05-17 16:33:09.559
88.0,53101.57574433992,103991.58048529392,-144253.42014472725,-202.95383965418813,-450357.16299500025,-611922.2774412963,-612113.1613389447,-612250.4010499002,0.228,0.204,0.956,192.0,0.0,0.0,0.0,0.0,0.0,0.0,0.0,0.0,0.0,1747524789.5598226,0.0, 2025-05-17 16:33:09.559
89.0,52986.95599877311,103988.00420618108,-144393.78909990657,-174.3436067513951,-450386.4884837256,-611909.1346155566,-612100.2867341384,-612237.7052590497,0.228,0.204,0.956,192.0,0.0,0.0,0.0,0.0,0.0,0.0,0.0,0.0,0.0,1747524789.5599253,0.0, 2025-05-17 16:33:09.559
90.0,52884.04856730087,103997.57075280797,-144519.04827583412,-131.78588530849044,-450401.2406350661,-611887.6769408796,-612078.5608385279,-612216.3369913503,0.218,0.22,0.95,192.0,6.0,208.0,6.0,224.0,29.0,176.0,0.0,0.0,0.0,1747524789.5600033,0.0, 2025-05-17 16:33:09.560
91.0,52821.37427584819,104046.56577665398,-144602.46498614133,-48.36917500128448,-450375.0443905645,-611860.7654405553,-612050.9340823811,-612188.8890491592,0.218,0.22,0.95,192.0,0.0,0.0,0.0,0.0,0.0,0.0,0.0,0.0,0.0,1747524789.5600865,0.0, 2025-05-17 16:33:09.560
92.0,52745.557158655785,104084.11670733892,-144696.07409192016,24.318697967374085,-450359.2193554902,-611846.3709171261,-612036.5395589519,-612173.958083863,0.218,0.22,0.95,192.0,0.0,0.0,0.0,0.0,0.0,0.0,0.0,0.0,0.0,1747524789.560191,0.0, 2025-05-17 16:33:09.560
93.0,52630.490378199866,104082.77560267158,-144829.3798958516,59.09801233983188,-450383.7168674132,-611836.7149635213,-612027.0624193028,-612164.3021302584,0.218,0.22,0.95,192.0,0.0,0.0,0.0,0.0,0.0,0.0,0.0,0.0,0.0,1747524789.5602689,0.0, 2025-05-17 16:33:09.560
94.0,52519.26809779026,104087.24595156264,-144957.50009506944,99.15233840374214,-450402.4923327557,-611817.9394981789,-612008.5551748938,-612146.0631067829,0.218,0.22,0.95,192.0,0.0,0.0,0.0,0.0,0.0,0.0,0.0,0.0,0.0,1747524789.5603864,0.0, 2025-05-17 16:33:09.560
95.0,52447.56370157763,104130.60833580594,-145045.4765612455,177.29403701949562,-450383.1804255463,-611793.2631723003,-611984.4152908821,-612121.7444088155,0.218,0.22,0.95,192.0,0.0,0.0,0.0,0.0,0.0,0.0,0.0,0.0,0.0,1747524789.5604646,0.0, 2025-05-17 16:33:09.560
96.0,52379.435584477855,104176.92115031734,-145129.34030644182,258.4755728811709,-450360.1134252684,-611772.5207534458,-611963.4940580719,-612101.0019899609,0.218,0.22,0.95,192.0,0.0,0.0,0.0,0.0,0.0,0.0,0.0,0.0,0.0,1747524789.5605438,0.0, 2025-05-17 16:33:09.560
97.0,52272.50483900367,104183.62667365393,-145249.59269161138,302.9108408583213,-450375.312611498,-611765.0999742866,-611955.9838719349,-612093.3129898683,0.218,0.22,0.95,192.0,0.0,0.0,0.0,0.0,0.0,0.0,0.0,0.0,0.0,1747524789.5606213,0.0, 2025-05-17 16:33:09.560
98.0,52156.27576783607,104182.73260387572,-145378.1599257183,339.12066687591874,-450400.2571583101,-611752.2253694803,-611942.8410461952,-612080.3489780843,0.218,0.22,0.95,192.0,0.0,0.0,0.0,0.0,0.0,0.0,0.0,0.0,0.0,1747524789.560699,0.0, 2025-05-17 16:33:09.560
99.0,52076.524743619535,104218.58480198204,-145471.41140358584,410.64624913290135,-450386.0414488365,-611738.7249158294,-611929.8770344111,-612067.1167453667,0.218,0.22,0.95,192.0,0.0,0.0,0.0,0.0,0.0,0.0,0.0,0.0,0.0,1747524789.5607774,0.0, 2025-05-17 16:33:09.560
100.0,52009.11188234233,104265.52346533818,-145548.6590324234,497.0133897082079,-450356.2689252221,-611713.0651131946,-611904.3960457321,-612041.8145706432,0.196,0.226,0.946,192.0,6.0,32.0,7.0,16.0,29.0,144.0,0.0,0.0,0.0,1747524789.560858,0.0, 2025-05-17 16:33:09.560
101.0,51903.075206646354,104276.07348872109,-145663.81521985712,546.7236693768108,-450366.0142858046,-611696.4354153199,-611887.408719946,-612025.006058813,0.196,0.226,0.946,192.0,0.0,0.0,0.0,0.0,0.0,0.0,0.0,0.0,0.0,1747524789.560943,0.0, 2025-05-17 16:33:09.560
102.0,51784.34274009976,104273.6595003199,-145794.08118654267,580.1618790819501,-450391.8529023949,-611694.4684618078,-611885.1735455005,-612022.5920704118,0.196,0.226,0.946,192.0,0.0,0.0,0.0,0.0,0.0,0.0,0.0,0.0,0.0,1747524789.5610268,0.0, 2025-05-17 16:33:09.561
103.0,51698.78026232484,104302.80617508964,-145892.428862146,647.3959264035137,-450385.5050069696,-611678.1069848666,-611869.2591034484,-612006.5882213818,0.196,0.226,0.946,192.0,0.0,0.0,0.0,0.0,0.0,0.0,0.0,0.0,0.0,1747524789.5611107,0.0, 2025-05-17 16:33:09.561
104.0,51638.60936625116,104354.30459431466,-145965.29554907032,739.932148448485,-450354.74900659913,-611647.3509844961,-611838.5925100556,-611976.3686628782,0.196,0.226,0.946,192.0,0.0,0.0,0.0,0.0,0.0,0.0,0.0,0.0,0.0,1747524789.561215,0.0, 2025-05-17 16:33:09.561
105.0,51544.55322558323,104371.56014103416,-146071.60044569976,800.1030445221717,-450358.325285712,-611629.9166238209,-611820.7111144915,-611958.4872673139,0.196,0.226,0.946,192.0,0.0,0.0,0.0,0.0,0.0,0.0,0.0,0.0,0.0,1747524789.5612924,0.0, 2025-05-17 16:33:09.561
106.0,51429.12881721602,104371.11310614504,-146197.03843558294,842.571358987255,-450379.9617743447,-611626.5191586637,-611817.4924632899,-611955.0898021567,0.196,0.226,0.946,192.0,0.0,0.0,0.0,0.0,0.0,0.0,0.0,0.0,0.0,1747524789.56137,0.0, 2025-05-17 16:33:09.561
107.0,51340.52650219519,104394.35892037857,-146296.90602980924,910.4312551535672,-450376.1172742984,-611610.4259026558,-611801.2203933264,-611938.6389182376,0.196,0.226,0.946,192.0,0.0,0.0,0.0,0.0,0.0,0.0,0.0,0.0,0.0,1747524789.5615275,0.0, 2025-05-17 16:33:09.561
108.0,51279.37212936546,104445.23149075884,-146367.62694926583,1006.5437563113876,-450344.3777971718,-611587.0012744667,-611777.885172115,-611915.3931040041,0.196,0.226,0.946,192.0,0.0,0.0,0.0,0.0,0.0,0.0,0.0,0.0,0.0,1747524789.5616071,0.0, 2025-05-17 16:33:09.561
109.0,51191.84269807848,104470.98070037136,-146464.63352020187,1074.493059455521,-450337.761680813,-611578.328797618,-611769.5703231776,-611906.8100341333,0.196,0.226,0.946,192.0,0.0,0.0,0.0,0.0,0.0,0.0,0.0,0.0,0.0,1747524789.5617256,0.0, 2025-05-17 16:33:09.561
110.0,51080.26278975759,104472.59002597214,-146586.58463795003,1117.2295948540682,-450356.3583321999,-611572.6067510375,-611763.7588696192,-611901.0879875526,0.206,0.234,0.94,192.0,6.0,112.0,7.0,80.0,29.0,96.0,0.0,0.0,0.0,1747524789.561804,0.0, 2025-05-17 16:33:09.561
111.0,50986.65368397876,104489.57735175815,-146689.3132554666,1176.9534560386487,-450357.341808956,-611557.7651927192,-611749.2749392122,-611886.6040571457,0.206,0.234,0.94,192.0,0.0,0.0,0.0,0.0,0.0,0.0,0.0,0.0,0.0,1747524789.5618906,0.0, 2025-05-17 16:33:09.561
112.0,50926.30397394944,104539.46644538242,-146756.45789581037,1273.6023990633964,-450325.8705527628,-611536.843959909,-611728.2642994242,-611865.6828243355,0.206,0.234,0.94,192.0,0.0,0.0,0.0,0.0,0.0,0.0,0.0,0.0,0.0,1747524789.5619695,0.0, 2025-05-17 16:33:09.561
113.0,50851.47033351306,104574.51398068834,-146837.37121073858,1355.320376791999,-450308.3467851099,-611519.6778201673,-611710.5617178157,-611848.0696497047,0.206,0.234,0.94,192.0,0.0,0.0,0.0,0.0,0.0,0.0,0.0,0.0,0.0,1747524789.5620475,0.0, 2025-05-17 16:33:09.562
114.0,50741.49975079295,104574.24575975488,-146954.67316564004,1400.8285285030042,-450328.3739481418,-611523.0752853245,-611713.7803690172,-611851.4671148619,0.206,0.234,0.94,192.0,0.0,0.0,0.0,0.0,0.0,0.0,0.0,0.0,0.0,1747524789.5621293,0.0, 2025-05-17 16:33:09.562
115.0,50642.52622634485,104585.51103896037,-147061.4250971586,1458.317215242054,-450338.3875296578,-611515.9227270988,-611706.3595898581,-611844.3145566361,0.206,0.234,0.94,192.0,0.0,0.0,0.0,0.0,0.0,0.0,0.0,0.0,0.0,1747524789.5622115,0.0, 2025-05-17 16:33:09.562
116.0,50579.22608604743,104632.53910929432,-147132.235423593,1550.8534372870251,-450312.6383200453,-611492.5875058875,-611683.5608105137,-611821.426370314,0.206,0.234,0.94,192.0,0.0,0.0,0.0,0.0,0.0,0.0,0.0,0.0,0.0,1747524789.5622952,0.0, 2025-05-17 16:33:09.562
117.0,50511.813224770216,104675.63327260414,-147207.87372682974,1637.3993918179742,-450293.86285470286,-611480.6069708595,-611671.6696824634,-611809.3564283081,0.206,0.234,0.94,192.0,0.0,0.0,0.0,0.0,0.0,0.0,0.0,0.0,0.0,1747524789.5623777,0.0, 2025-05-17 16:33:09.562
118.0,50409.17401423145,104682.96464478548,-147319.8112630619,1688.0931482426106,-450310.6713665332,-611472.6497498334,-611663.8018684151,-611801.3098003042,0.206,0.234,0.94,192.0,0.0,0.0,0.0,0.0,0.0,0.0,0.0,0.0,0.0,1747524789.5624628,0.0, 2025-05-17 16:33:09.562
119.0,50308.76997813821,104691.0112727894,-147431.12295044935,1739.0551256007109,-450325.9599597407,-611466.9277032528,-611658.3480427681,-611795.4983467459,0.206,0.234,0.94,192.0,0.0,0.0,0.0,0.0,0.0,0.0,0.0,0.0,0.0,1747524789.5625708,0.0, 2025-05-17 16:33:09.562
120.0,50247.70501228631,104735.35713378873,-147504.1684513293,1826.6739638655145,-450304.3234711079,-611456.7353077811,-611647.887426363,-611785.7529861633,0.208,0.202,0.932,192.0,6.0,128.0,6.0,80.0,29.0,32.0,0.0,0.0,0.0,1747524789.5626657,0.0, 2025-05-17 16:33:09.562
121.0,50193.16675581536,104785.69326230208,-147571.76012656215,1919.2101859104855,-450277.59078473935,-611434.6517842594,-611625.7144958633,-611763.1330207746,0.208,0.202,0.932,192.0,0.0,0.0,0.0,0.0,0.0,0.0,0.0,0.0,0.0,1747524789.56276,0.0, 2025-05-17 16:33:09.562
122.0,50099.46824305871,104798.56786710832,-147677.349767369,1971.066233046798,-450294.1310756363,-611425.800493455,-611616.6843911033,-611753.8346950811,0.208,0.202,0.932,192.0,0.0,0.0,0.0,0.0,0.0,0.0,0.0,0.0,0.0,1747524789.5629456,0.0, 2025-05-17 16:33:09.562
123.0,49997.36547438687,104802.05473924337,-147792.41654782495,2013.713361467524,-450320.5955410714,-611427.1415981223,-611618.2937167041,-611755.6228346375,0.208,0.202,0.932,192.0,0.0,0.0,0.0,0.0,0.0,0.0,0.0,0.0,0.0,1747524789.5629976,0.0, 2025-05-17 16:33:09.562
124.0,49928.79032239799,104837.90693734967,-147875.02859533174,2090.156327504674,-450312.4595060897,-611413.9093654049,-611605.5979258536,-611742.5694158756,0.208,0.202,0.932,192.0,0.0,0.0,0.0,0.0,0.0,0.0,0.0,0.0,0.0,1747524789.5630703,0.0, 2025-05-17 16:33:09.563
125.0,49879.34826366285,104890.6570542642,-147941.10035194163,2181.351444882327,-450288.7666569671,-611400.0512838425,-611591.4716233577,-611728.4431133799,0.208,0.202,0.932,192.0,0.0,0.0,0.0,0.0,0.0,0.0,0.0,0.0,0.0,1747524789.5631385,0.0, 2025-05-17 16:33:09.563
126.0,49796.11036731129,104910.68421729616,-148041.14676012358,2239.465980466125,-450301.46244781767,-611392.2728767721,-611583.6038093095,-611720.4858923538,0.208,0.202,0.932,192.0,0.0,0.0,0.0,0.0,0.0,0.0,0.0,0.0,0.0,1747524789.5631883,0.0, 2025-05-17 16:33:09.563
127.0,49694.365226550726,104911.75710103002,-148160.95211040403,2276.480469284113,-450335.794727301,-611395.2233070402,-611586.5542395776,-611723.9727644888,0.208,0.202,0.932,192.0,0.0,0.0,0.0,0.0,0.0,0.0,0.0,0.0,0.0,1747524789.5632372,0.0, 2025-05-17 16:33:09.563
128.0,49625.70066758402,104944.21183397912,-148248.66035564666,2344.60858638389,-450338.6557505913,-611383.1533650343,-611574.394890594,-611711.5451945717,0.208,0.202,0.932,192.0,0.0,0.0,0.0,0.0,0.0,0.0,0.0,0.0,0.0,1747524789.5632868,0.0, 2025-05-17 16:33:09.563
129.0,49583.94760894151,105001.52170676252,-148311.33464709934,2435.714296783721,-450317.8239247589,-611359.7287368452,-611551.1490763604,-611688.0311594047,0.208,0.202,0.932,192.0,0.0,0.0,0.0,0.0,0.0,0.0,0.0,0.0,0.0,1747524789.5633357,0.0, 2025-05-17 16:33:09.563
130.0,49511.617363884136,105027.36032335286,-148406.19545056767,2494.454681212268,-450329.8938667648,-611354.0960972424,-611545.6058437355,-611682.9349616689,0.248,0.182,0.94,192.0,7.0,192.0,5.0,176.0,29.0,96.0,0.0,0.0,0.0,1747524789.5633843,0.0, 2025-05-17 16:33:09.563
131.0,49416.84596739364,105032.27770713302,-148523.76562640257,2528.608146739977,-450366.9977625606,-611345.2448064381,-611536.2181110643,-611673.9942638867,0.248,0.182,0.94,192.0,0.0,0.0,0.0,0.0,0.0,0.0,0.0,0.0,0.0,1747524789.5634372,0.0, 2025-05-17 16:33:09.563
132.0,49344.87335024754,105059.9938702576,-148620.6827903608,2583.325217166569,-450385.5944139474,-611332.3702016318,-611523.343506258,-611661.0302521026,0.248,0.182,0.94,192.0,0.0,0.0,0.0,0.0,0.0,0.0,0.0,0.0,0.0,1747524789.5634863,0.0, 2025-05-17 16:33:09.563
133.0,49302.85207067157,105115.60501046242,-148690.42023306136,2665.3114158286357,-450375.8490533649,-611309.5714222875,-611500.7235408692,-611638.1420657805,0.248,0.182,0.94,192.0,0.0,0.0,0.0,0.0,0.0,0.0,0.0,0.0,0.0,1747524789.563536,0.0, 2025-05-17 16:33:09.563
134.0,49238.56845361811,105149.49025505666,-148783.58230395106,2724.58824212411,-450388.7236581712,-611295.266305836,-611486.5972383735,-611623.836949329,0.248,0.182,0.94,192.0,0.0,0.0,0.0,0.0,0.0,0.0,0.0,0.0,0.0,1747524789.5635986,0.0, 2025-05-17 16:33:09.563
135.0,49144.42290597235,105154.49704581464,-148907.67918916693,2752.7514401377966,-450433.6059610375,-611292.5840965013,-611483.9150290388,-611621.0653330166,0.248,0.182,0.94,192.0,0.0,0.0,0.0,0.0,0.0,0.0,0.0,0.0,0.0,1747524789.5636475,0.0, 2025-05-17 16:33:09.563
136.0,49070.84096322549,105176.40175538084,-149015.59341139716,2795.309161580701,-450462.4844148737,-611281.8552591628,-611472.9179707668,-611609.8000538112,0.248,0.182,0.94,192.0,0.0,0.0,0.0,0.0,0.0,0.0,0.0,0.0,0.0,1747524789.5636969,0.0, 2025-05-17 16:33:09.563
137.0,49035.79342791956,105231.83408163,-149086.49314480938,2871.215685750924,-450457.2988101601,-611270.2323520461,-611461.2950636501,-611598.4453676278,0.248,0.182,0.94,192.0,0.0,0.0,0.0,0.0,0.0,0.0,0.0,0.0,0.0,1747524789.563799,0.0, 2025-05-17 16:33:09.563
138.0,48986.61959011789,105274.66002400636,-149173.39672725162,2932.638279514108,-450467.75942656514,-611261.6492821752,-611452.8908077349,-611590.2199256683,0.248,0.182,0.94,192.0,0.0,0.0,0.0,0.0,0.0,0.0,0.0,0.0,0.0,1747524789.5638487,0.0, 2025-05-17 16:33:09.563
139.0,48904.543984478,105284.67360552236,-149298.0300543344,2958.2980821488004,-450512.7311364092,-611257.7153751511,-611448.9569007107,-611586.2860186441,0.248,0.182,0.94,192.0,0.0,0.0,0.0,0.0,0.0,0.0,0.0,0.0,0.0,1747524789.563934,0.0, 2025-05-17 16:33:09.563
140.0,48829.08449519688,105299.51516384068,-149417.03074181447,2991.02103603137,-450553.5901252735,-611259.771735641,-611451.1026681784,-611588.4317861119,0.28,0.168,0.954,192.0,8.0,192.0,5.0,64.0,29.0,208.0,0.0,0.0,0.0,1747524789.5640335,0.0, 2025-05-17 16:33:09.564
0.0,0.0,0.0,0.0,0.0,0.0,0.0,0.0,0.0,0.22,0.18,0.97,192.0,6.0,224.0,5.0,160.0,30.0,80.0,0.0,0.0,0.0,1747524789.6386845,0.0, 2025-05-17 16:33:09.638
1.0,-79416.73152646203,91110.4489696561,-490325.0325113574,-34989.06314242639,-557268.9541898911,-583576.4209719206,-583803.78291652,-583934.1382901834,0.22,0.18,0.97,192.0,0.0,0.0,0.0,0.0,0.0,0.0,0.0,0.0,0.0,1747524790.1253133,0.0, 2025-05-17 16:33:10.125
2.0,-79457.85873625979,91092.12053920276,-490477.6502224982,-35040.29334071795,-557602.7998450756,-583584.4675999245,-583805.9286839877,-583936.4628716067,0.22,0.18,0.97,192.0,0.0,0.0,0.0,0.0,0.0,0.0,0.0,0.0,0.0,1747524790.1254172,0.0, 2025-05-17 16:33:10.125
3.0,-79474.84606204582,91093.90867875918,-490608.9890729176,-35068.81416664293,-557585.6337053339,-583589.6532046382,-583808.6108933224,-583939.5921158305,0.22,0.18,0.97,192.0,0.0,0.0,0.0,0.0,0.0,0.0,0.0,0.0,0.0,1747524790.1254923,0.0, 2025-05-17 16:33:10.125
4.0,-79496.75077161203,91090.33239964632,-490745.2453071172,-35100.64305074728,-557473.606762124,-583591.9777860616,-583811.3825096348,-583942.0955112095,0.22,0.18,0.97,192.0,0.0,0.0,0.0,0.0,0.0,0.0,0.0,0.0,0.0,1747524790.1255596,0.0, 2025-05-17 16:33:10.125
5.0,-79545.11994661331,91063.86793421126,-490907.0719369736,-35157.416481663764,-557386.7031796817,-583605.2994257569,-583825.9558470197,-583956.311220683,0.22,0.18,0.97,192.0,0.0,0.0,0.0,0.0,0.0,0.0,0.0,0.0,0.0,1747524790.12561,0.0, 2025-05-17 16:33:10.125
6.0,-79596.26073792705,91030.51913148392,-491071.7595901203,-35219.10729636041,-557305.6110507979,-583612.273170027,-583835.4329866688,-583966.324802199,0.22,0.18,0.97,192.0,0.0,0.0,0.0,0.0,0.0,0.0,0.0,0.0,0.0,1747524790.125661,0.0, 2025-05-17 16:33:10.125
7.0,-79615.66205211426,91026.13818957069,-491205.6912428965,-35252.009064198624,-557195.1934331886,-583608.8757048697,-583839.277486715,-583969.9010813119,0.22,0.18,0.97,192.0,0.0,0.0,0.0,0.0,0.0,0.0,0.0,0.0,0.0,1747524790.1257105,0.0, 2025-05-17 16:33:10.125
8.0,-79623.08283127342,91033.02252686291,-491328.1788025116,-35274.27140167611,-557074.5834201078,-583589.8320185938,-583831.8567075559,-583962.3014881971,0.198,0.182,0.972,192.0,6.0,48.0,5.0,176.0,30.0,96.0,0.0,0.0,0.0,1747524790.1258285,0.0, 2025-05-17 16:33:10.125
9.0,-79658.66680844627,91011.475445208,-491480.08125782985,-35324.786344145105,-556940.3835463981,-583592.3354139728,-583842.4067309388,-583972.7621046022,0.198,0.182,0.972,192.0,0.0,0.0,0.0,0.0,0.0,0.0,0.0,0.0,0.0,1747524790.1258838,0.0, 2025-05-17 16:33:10.125
10.0,-79701.13512291135,90986.08386350678,-491635.2023643497,-35379.68222852734,-556710.875834331,-583618.9786933636,-583855.5495566785,-583986.1731512754,0.198,0.182,0.972,192.0,0.0,0.0,0.0,0.0,0.0,0.0,0.0,0.0,0.0,1747524790.1259332,0.0, 2025-05-17 16:33:10.125
11.0,-79702.2080066452,91000.03135204688,-491749.2856680496,-35393.89793800091,-556766.5763815137,-583619.6045422083,-583853.4037892108,-583984.0273838076,0.198,0.182,0.972,192.0,0.0,0.0,0.0,0.0,0.0,0.0,0.0,0.0,0.0,1747524790.1259828,0.0, 2025-05-17 16:33:10.125
12.0,-79682.98550641365,91030.96616637304,-491844.3252854736,-35388.71233328728,-556909.9851739389,-583620.4986119865,-583849.827510098,-583980.1828837614,0.198,0.182,0.972,192.0,0.0,0.0,0.0,0.0,0.0,0.0,0.0,0.0,0.0,1747524790.1261227,0.0, 2025-05-17 16:33:10.126
13.0,-79691.38976232884,91030.87675939522,-491968.4221706894,-35412.85221729901,-557083.8817458012,-583621.5714957204,-583848.1287775193,-583978.9311860718,0.198,0.182,0.972,192.0,0.0,0.0,0.0,0.0,0.0,0.0,0.0,0.0,0.0,1747524790.1261723,0.0, 2025-05-17 16:33:10.126
14.0,-79723.03983247756,91006.73687538347,-492115.9436840944,-35463.36715976801,-557319.2903184046,-583630.7804144359,-583858.6788009022,-583989.391802477,0.198,0.182,0.972,192.0,0.0,0.0,0.0,0.0,0.0,0.0,0.0,0.0,0.0,1747524790.1263263,0.0, 2025-05-17 16:33:10.126
15.0,-79735.73562332818,91001.37245671422,-492246.2990577578,-35496.00070667276,-557645.5363804742,-583640.4363680406,-583863.0597428156,-583993.6833374123,0.198,0.182,0.972,192.0,0.0,0.0,0.0,0.0,0.0,0.0,0.0,0.0,0.0,1747524790.126377,0.0, 2025-05-17 16:33:10.126
16.0,-79729.29832092504,91014.96231734304,-492355.9120125666,-35507.44479983387,-557633.645252424,-583637.4859377726,-583856.8906613458,-583987.335441987,0.198,0.182,0.972,192.0,0.0,0.0,0.0,0.0,0.0,0.0,0.0,0.0,0.0,1747524790.1264267,0.0, 2025-05-17 16:33:10.126
17.0,-79747.35853044492,91001.2830497364,-492488.77078160894,-35542.04530025069,-557528.8602744174,-583649.5558797785,-583868.7817893961,-583999.6736049263,0.198,0.182,0.972,192.0,0.0,0.0,0.0,0.0,0.0,0.0,0.0,0.0,0.0,1747524790.1264763,0.0, 2025-05-17 16:33:10.126
18.0,-79788.03870535358,90963.01686322891,-492646.21646955214,-35598.90813814499,-557449.6456920679,-583664.4868450746,-583885.1432663373,-584015.9456748898,0.22,0.18,0.966,192.0,6.0,224.0,5.0,160.0,30.0,48.0,0.0,0.0,0.0,1747524790.1265256,0.0, 2025-05-17 16:33:10.126
19.0,-79813.96672892175,90939.8604559732,-492787.7477154432,-35642.09170843264,-557355.1425165108,-583673.8745777458,-583898.286092077,-584028.9096866739,0.22,0.18,0.966,192.0,0.0,0.0,0.0,0.0,0.0,0.0,0.0,0.0,0.0,1747524790.1265793,0.0, 2025-05-17 16:33:10.126
20.0,-79812.17858936531,90944.0625839308,-492902.0098330987,-35661.58242959767,-557235.6947941417,-583668.5101590765,-583900.6106735005,-584031.1448611195,0.22,0.18,0.966,192.0,0.0,0.0,0.0,0.0,0.0,0.0,0.0,0.0,0.0,1747524790.1266289,0.0, 2025-05-17 16:33:10.126
21.0,-79829.07650817353,90931.45620005802,-493035.40504400793,-35697.613441659625,-557133.7708394255,-583660.5529380505,-583904.276359591,-584034.81054721,0.22,0.18,0.966,192.0,0.0,0.0,0.0,0.0,0.0,0.0,0.0,0.0,0.0,1747524790.126678,0.0, 2025-05-17 16:33:10.126
22.0,-79872.349485439,90889.16669954856,-493195.3541273301,-35760.73476800141,-557043.8274197374,-583668.9571939657,-583922.2471621331,-584052.6025357965,0.22,0.18,0.966,192.0,0.0,0.0,0.0,0.0,0.0,0.0,0.0,0.0,0.0,1747524790.126727,0.0, 2025-05-17 16:33:10.126
23.0,-79883.43595068884,90875.66624589756,-493322.4014428141,-35794.709419573475,-556790.9844864588,-583690.2360546871,-583928.6844645363,-584059.3080591331,0.22,0.18,0.966,192.0,0.0,0.0,0.0,0.0,0.0,0.0,0.0,0.0,0.0,1747524790.1268113,0.0, 2025-05-17 16:33:10.126
24.0,-79853.48461311872,90904.0082578669,-493409.1262113007,-35790.14966370459,-556741.7212416794,-583703.5576943824,-583935.2111739173,-584065.6559545584,0.22,0.18,0.966,192.0,0.0,0.0,0.0,0.0,0.0,0.0,0.0,0.0,0.0,1747524790.126861,0.0, 2025-05-17 16:33:10.126
25.0,-79829.79176399611,90923.67779298755,-493501.5730263678,-35792.65305908359,-556892.9084411751,-583696.0475082455,-583928.2374296471,-584058.5928033105,0.22,0.18,0.966,192.0,0.0,0.0,0.0,0.0,0.0,0.0,0.0,0.0,0.0,1747524790.1269104,0.0, 2025-05-17 16:33:10.126
26.0,-79837.48076408873,90911.1608160926,-493627.1004232288,-35825.823047855265,-557079.7690248215,-583711.2466944751,-583938.5192320966,-584069.0534197156,0.22,0.18,0.966,192.0,0.0,0.0,0.0,0.0,0.0,0.0,0.0,0.0,0.0,1747524790.1269596,0.0, 2025-05-17 16:33:10.126
27.0,-79841.68289204633,90901.32604853224,-493749.1409479548,-35857.65193195963,-557264.9308758893,-583726.267066749,-583953.0925694815,-584084.0737919896,0.22,0.18,0.966,192.0,0.0,0.0,0.0,0.0,0.0,0.0,0.0,0.0,0.0,1747524790.1270697,0.0, 2025-05-17 16:33:10.127
28.0,-79817.90063594587,90915.72057196149,-493840.4254723103,-35862.65872271761,-557503.3792857385,-583717.8628108338,-583945.0459414775,-584075.5801290965,0.224,0.166,0.948,192.0,7.0,0.0,5.0,48.0,29.0,160.0,0.0,0.0,0.0,1747524790.12712,0.0, 2025-05-17 16:33:10.127
29.0,-79802.61204273844,90920.90617667513,-493938.8625548914,-35874.281629834375,-557762.9277423534,-583737.5323459544,-583957.5629183726,-584088.4547339028,0.224,0.166,0.948,192.0,0.0,0.0,0.0,0.0,0.0,0.0,0.0,0.0,0.0,1747524790.1272516,0.0, 2025-05-17 16:33:10.127
30.0,-79819.15233363537,90891.40187399412,-494069.3073355326,-35920.77325830141,-557723.9463000234,-583764.0862183674,-583982.8650930959,-584113.9357225819,0.224,0.166,0.948,192.0,0.0,0.0,0.0,0.0,0.0,0.0,0.0,0.0,0.0,1747524790.1273415,0.0, 2025-05-17 16:33:10.127
31.0,-79839.26890364515,90855.28145495433,-494203.0601743532,-35971.377607748225,-557641.5130664723,-583778.3913348188,-583997.7960583922,-584128.866687878,0.224,0.166,0.948,192.0,0.0,0.0,0.0,0.0,0.0,0.0,0.0,0.0,0.0,1747524790.127442,0.0, 2025-05-17 16:33:10.127
32.0,-79824.87438021593,90851.61576886366,-494301.3184429787,-35990.242480068504,-557529.3073093066,-583780.7159162421,-584002.1770003054,-584132.8005949021,0.224,0.166,0.948,192.0,0.0,0.0,0.0,0.0,0.0,0.0,0.0,0.0,0.0,1747524790.1275408,0.0, 2025-05-17 16:33:10.127
33.0,-79796.71118220224,90857.69544335552,-494386.3444788867,-36003.02767789694,-557408.0714473809,-583775.0832766395,-584001.6405584384,-584131.906525124,0.224,0.166,0.948,192.0,0.0,0.0,0.0,0.0,0.0,0.0,0.0,0.0,0.0,1747524790.1276317,0.0, 2025-05-17 16:33:10.127
34.0,-79799.75101944817,90832.21445467645,-494500.5171895644,-36044.780736539455,-557320.7208300496,-583785.812113978,-584020.7736516922,-584150.8608044221,0.224,0.166,0.948,192.0,0.0,0.0,0.0,0.0,0.0,0.0,0.0,0.0,0.0,1747524790.127714,0.0, 2025-05-17 16:33:10.127
35.0,-79808.42349629683,90797.34573332618,-494622.5577142904,-36094.6698301637,-557243.2943872565,-583794.3057768709,-584040.1749658794,-584171.2455953653,0.224,0.166,0.948,192.0,0.0,0.0,0.0,0.0,0.0,0.0,0.0,0.0,0.0,1747524790.1278052,0.0, 2025-05-17 16:33:10.127
36.0,-79785.9823448637,90788.94147741098,-494715.80919215793,-36119.793190931465,-557042.6651290256,-583804.4087653648,-584050.5461753067,-584181.5273978147,0.224,0.166,0.948,192.0,0.0,0.0,0.0,0.0,0.0,0.0,0.0,0.0,0.0,1747524790.127885,0.0, 2025-05-17 16:33:10.127
37.0,-79733.14282097135,90808.16397764254,-494775.6224603203,-36116.30631879644,-556851.1553825325,-583826.5816958644,-584057.9669544658,-584188.8587699961,0.224,0.166,0.948,192.0,0.0,0.0,0.0,0.0,0.0,0.0,0.0,0.0,0.0,1747524790.12797,0.0, 2025-05-17 16:33:10.127
38.0,-79696.84358797593,90806.7334659974,-494853.8535659139,-36131.50550502605,-556999.0345238489,-583840.5291844045,-584073.0767337176,-584203.7897352922,0.228,0.156,0.946,192.0,7.0,32.0,4.0,224.0,29.0,144.0,0.0,0.0,0.0,1747524790.1280577,0.0, 2025-05-17 16:33:10.128
39.0,-79676.10116912141,90785.7228262094,-494950.4131019609,-36167.536517088,-557198.7697123016,-583855.0131148116,-584082.8220943001,-584213.4456888969,0.228,0.156,0.946,192.0,0.0,0.0,0.0,0.0,0.0,0.0,0.0,0.0,0.0,1747524790.1281834,0.0, 2025-05-17 16:33:10.128
40.0,-79635.68921514621,90783.84527967517,-495027.839544754,-36184.88147078532,-557380.1764703008,-583870.2123010412,-584096.858989818,-584227.5719913926,0.228,0.156,0.946,192.0,0.0,0.0,0.0,0.0,0.0,0.0,0.0,0.0,0.0,1747524790.1282628,0.0, 2025-05-17 16:33:10.128
41.0,-79567.65050502426,90807.44872181996,-495076.2981267331,-36176.65602882577,-557557.2916933646,-583875.6661266882,-584104.6373968885,-584235.0821775296,0.228,0.156,0.946,192.0,0.0,0.0,0.0,0.0,0.0,0.0,0.0,0.0,0.0,1747524790.1283493,0.0, 2025-05-17 16:33:10.128
42.0,-79519.99658584554,90807.00168693086,-495149.343627613,-36191.229366210624,-557890.4220927266,-583897.839057188,-584121.4459087189,-584252.1589102935,0.228,0.156,0.946,192.0,0.0,0.0,0.0,0.0,0.0,0.0,0.0,0.0,0.0,1747524790.1284585,0.0, 2025-05-17 16:33:10.128
43.0,-79508.37367872879,90769.54016322376,-495261.6387917565,-36244.6053319699,-557991.3625706867,-583920.1908016433,-584139.0590833497,-584269.5932709686,0.228,0.156,0.946,192.0,0.0,0.0,0.0,0.0,0.0,0.0,0.0,0.0,0.0,1747524790.1285424,0.0, 2025-05-17 16:33:10.128
44.0,-79484.50201565052,90742.44984894394,-495365.7979209183,-36287.96771621319,-557911.0751046032,-583940.307371653,-584159.1756533594,-584289.7098409784,0.228,0.156,0.946,192.0,0.0,0.0,0.0,0.0,0.0,0.0,0.0,0.0,0.0,1747524790.1287484,0.0, 2025-05-17 16:33:10.128
45.0,-79432.6459685142,90742.36044196611,-495444.6548753566,-36303.435123376265,-557801.5515567722,-583952.0196857477,-584171.6032232766,-584302.405631829,0.228,0.156,0.946,192.0,0.0,0.0,0.0,0.0,0.0,0.0,0.0,0.0,0.0,1747524790.1288552,0.0, 2025-05-17 16:33:10.128
46.0,-79396.16792156314,90727.5188836478,-495542.5555160708,-36330.70425161174,-557706.4225323704,-583961.2286044632,-584182.6002815486,-584313.5815040567,0.228,0.156,0.946,192.0,0.0,0.0,0.0,0.0,0.0,0.0,0.0,0.0,0.0,1747524790.128942,0.0, 2025-05-17 16:33:10.128
47.0,-79385.26027026896,90689.78913900723,-495674.52021533495,-36382.47089177023,-557634.62872918,-583981.9710233178,-584207.0977934715,-584337.5425741128,0.228,0.156,0.946,192.0,0.0,0.0,0.0,0.0,0.0,0.0,0.0,0.0,0.0,1747524790.1290257,0.0, 2025-05-17 16:33:10.129
48.0,-79367.82590959381,90661.0000921488,-495809.1671239337,-36431.01888072716,-557556.129402653,-583993.4151164788,-584225.5156309027,-584356.2286324773,0.236,0.154,0.948,192.0,7.0,96.0,4.0,208.0,29.0,160.0,0.0,0.0,0.0,1747524790.1291113,0.0, 2025-05-17 16:33:10.129
49.0,-79322.94360672755,90663.41408054998,-495918.4224508313,-36451.76129958168,-557445.8905989993,-583991.1799420334,-584237.6749798865,-584368.2091675055,0.236,0.154,0.948,192.0,0.0,0.0,0.0,0.0,0.0,0.0,0.0,0.0,0.0,1747524790.1292045,0.0, 2025-05-17 16:33:10.129
50.0,-79291.82997844578,90655.903894413,-496043.4134058253,-36483.50077670822,-557250.4469454822,-584002.0875933275,-584249.9237358479,-584380.904958356,0.236,0.154,0.948,192.0,0.0,0.0,0.0,0.0,0.0,0.0,0.0,0.0,0.0,1747524790.1292913,0.0, 2025-05-17 16:33:10.129
51.0,-79280.47529226248,90636.68139418142,-496188.3421168736,-36526.7737539737,-557088.7991295814,-584035.346989077,-584267.447503501,-584398.5181329869,0.236,0.154,0.948,192.0,0.0,0.0,0.0,0.0,0.0,0.0,0.0,0.0,0.0,1747524790.1293783,0.0, 2025-05-17 16:33:10.129
52.0,-79262.8621176317,90632.21104529036,-496322.45258360537,-36555.0263589652,-557235.6947941417,-584040.8902217019,-584272.1860733255,-584403.0778888557,0.236,0.154,0.948,192.0,0.0,0.0,0.0,0.0,0.0,0.0,0.0,0.0,0.0,1747524790.129464,0.0, 2025-05-17 16:33:10.129
53.0,-79217.80100080979,90660.73187121534,-496423.7506894768,-36553.3276263866,-557386.7031796817,-584045.5393845487,-584273.1695500815,-584404.0613656117,0.236,0.154,0.948,192.0,0.0,0.0,0.0,0.0,0.0,0.0,0.0,0.0,0.0,1747524790.1295512,0.0, 2025-05-17 16:33:10.129
54.0,-79171.75640723186,90693.09719718662,-496518.6114929452,-36546.62210305001,-557530.0225651291,-584039.5491170347,-584265.9275848779,-584397.0876213417,0.236,0.154,0.948,192.0,0.0,0.0,0.0,0.0,0.0,0.0,0.0,0.0,0.0,1747524790.1296608,0.0, 2025-05-17 16:33:10.129
55.0,-79162.72630247191,90693.901859987,-496642.35075024975,-36568.97384750532,-557745.4039747005,-584045.6287915264,-584273.1695500815,-584404.418993523,0.236,0.154,0.948,192.0,0.0,0.0,0.0,0.0,0.0,0.0,0.0,0.0,0.0,1747524790.1297436,0.0, 2025-05-17 16:33:10.129
56.0,-79170.50470954237,90683.17302264848,-496774.762484403,-36603.57434792213,-558076.0309786834,-584061.2750126452,-584283.0043176418,-584413.8961331721,0.236,0.154,0.948,192.0,0.0,0.0,0.0,0.0,0.0,0.0,0.0,0.0,0.0,1747524790.12983,0.0, 2025-05-17 16:33:10.129
57.0,-79156.55722100225,90694.97474372089,-496881.06738103245,-36613.498522460286,-558059.6695017421,-584071.2885941612,-584290.3356898231,-584420.8698774421,0.236,0.154,0.948,192.0,0.0,0.0,0.0,0.0,0.0,0.0,0.0,0.0,0.0,1747524790.1299243,0.0, 2025-05-17 16:33:10.129
58.0,-79128.39402298856,90716.96886026488,-496970.83198676497,-36611.26334801476,-557924.3073373208,-584063.3313731351,-584282.914910664,-584413.3596913052,0.232,0.152,0.958,192.0,7.0,64.0,4.0,192.0,29.0,240.0,0.0,0.0,0.0,1747524790.1299753,0.0, 2025-05-17 16:33:10.129
59.0,-79120.16858102901,90710.62096483956,-497084.1106276644,-36637.10196460509,-557821.5787198042,-584074.5072453627,-584295.878922448,-584426.5025170449,0.232,0.152,0.958,192.0,0.0,0.0,0.0,0.0,0.0,0.0,0.0,0.0,0.0,1747524790.130107,0.0, 2025-05-17 16:33:10.130
60.0,-79116.68170889399,90688.09040642864,-497205.34648959,-36677.78213951375,-557736.8209048297,-584088.8123618141,-584314.2967598792,-584445.0991684317,0.232,0.152,0.958,192.0,0.0,0.0,0.0,0.0,0.0,0.0,0.0,0.0,0.0,1747524790.1301568,0.0, 2025-05-17 16:33:10.130
61.0,-79080.47188287639,90690.95142971892,-497292.875920877,-36691.9084420095,-557625.9562523314,-584090.5110943927,-584325.5620390847,-584456.7220755485,0.232,0.152,0.958,192.0,0.0,0.0,0.0,0.0,0.0,0.0,0.0,0.0,0.0,1747524790.1302063,0.0, 2025-05-17 16:33:10.130
62.0,-79017.70818444589,90713.92902301897,-497350.364607616,-36686.54402334023,-557483.2627157286,-584085.861931546,-584335.8438415341,-584467.0038779979,0.232,0.152,0.958,192.0,0.0,0.0,0.0,0.0,0.0,0.0,0.0,0.0,0.0,1747524790.1302547,0.0, 2025-05-17 16:33:10.130
63.0,-78965.9415442874,90718.3099649322,-497413.3071200022,-36699.95507001341,-557230.4197824502,-584109.4653736908,-584349.4337021629,-584480.3255176933,0.232,0.152,0.958,192.0,0.0,0.0,0.0,0.0,0.0,0.0,0.0,0.0,0.0,1747524790.1303291,0.0, 2025-05-17 16:33:10.130
64.0,-78909.88336919349,90714.37605790808,-497466.8618997171,-36718.46231442241,-557218.5286544,-584138.9696763718,-584371.8748535961,-584502.6772621486,0.232,0.152,0.958,192.0,0.0,0.0,0.0,0.0,0.0,0.0,0.0,0.0,0.0,1747524790.1303785,0.0, 2025-05-17 16:33:10.130
65.0,-78820.29757741661,90732.97270929487,-497470.6169927856,-36711.75679108582,-557388.2230983047,-584165.2553278513,-584396.0147376078,-584526.9959601159,0.232,0.152,0.958,192.0,0.0,0.0,0.0,0.0,0.0,0.0,0.0,0.0,0.0,1747524790.130428,0.0, 2025-05-17 16:33:10.130
66.0,-78698.25705269063,90773.8316981592,-497420.10205031664,-36676.7092557799,-557534.8505419315,-584180.4545140809,-584407.2800168133,-584538.4400532771,0.232,0.152,0.958,192.0,0.0,0.0,0.0,0.0,0.0,0.0,0.0,0.0,0.0,1747524790.1304767,0.0, 2025-05-17 16:33:10.130
67.0,-78590.87927232734,90792.24953559037,-497362.881584511,-36652.83759270162,-557697.3924276105,-584197.7994677782,-584423.8203077102,-584554.980344174,0.232,0.152,0.958,192.0,0.0,0.0,0.0,0.0,0.0,0.0,0.0,0.0,0.0,1747524790.1305263,0.0, 2025-05-17 16:33:10.130
68.0,-78508.1778178427,90781.96773314092,-497312.6348629755,-36643.98630189733,-557915.5454534943,-584226.6779216145,-584453.950459236,-584585.4681236111,0.228,0.158,0.968,192.0,7.0,32.0,4.0,240.0,30.0,64.0,0.0,0.0,0.0,1747524790.1305757,0.0, 2025-05-17 16:33:10.130
69.0,-78423.42000286818,90774.09991909264,-497243.0762342306,-36618.05827832917,-558237.1423527172,-584259.5796894527,-584481.487808405,-584612.7372518465,0.228,0.158,0.968,192.0,0.0,0.0,0.0,0.0,0.0,0.0,0.0,0.0,0.0,1747524790.1306446,0.0, 2025-05-17 16:33:10.130
70.0,-78320.69138535159,90785.7228262094,-497144.81796560506,-36562.71535905783,-558220.2444339091,-584283.3619455531,-584502.3196342373,-584632.8538218563,0.228,0.158,0.968,192.0,0.0,0.0,0.0,0.0,0.0,0.0,0.0,0.0,0.0,1747524790.1306944,0.0, 2025-05-17 16:33:10.130
71.0,-78237.7217099335,90780.80544242923,-497054.6957319612,-36513.27330032269,-558082.9153159757,-584300.1704573835,-584520.3798437571,-584651.0928453318,0.228,0.158,0.968,192.0,0.0,0.0,0.0,0.0,0.0,0.0,0.0,0.0,0.0,1747524790.1307435,0.0, 2025-05-17 16:33:10.130
72.0,-78187.47498839795,90747.27782574628,-496990.9485567747,-36484.48425346425,-557967.669721564,-584327.6183995747,-584553.7286464844,-584684.2628341034,0.228,0.158,0.968,192.0,0.0,0.0,0.0,0.0,0.0,0.0,0.0,0.0,0.0,1747524790.1308053,0.0, 2025-05-17 16:33:10.130
73.0,-78129.0922318807,90722.5120928898,-496914.0585558485,-36442.5523808661,-557831.7711152758,-584354.3510859432,-584595.6605190827,-584726.2841136794,0.228,0.158,0.968,192.0,0.0,0.0,0.0,0.0,0.0,0.0,0.0,0.0,0.0,1747524790.1308544,0.0, 2025-05-17 16:33:10.130
74.0,-78035.03609121277,90732.97270929487,-496800.243473082,-36363.06957758303,-557527.9662046393,-584381.3519932452,-584620.6050658948,-584751.0498465359,0.228,0.158,0.968,192.0,0.0,0.0,0.0,0.0,0.0,0.0,0.0,0.0,0.0,1747524790.130926,0.0, 2025-05-17 16:33:10.130
75.0,-77937.67189236546,90751.03291881476,-496675.16311111016,-36274.19904162872,-557382.9480866132,-584413.98554015,-584641.2580777715,-584771.6134514349,0.228,0.158,0.968,192.0,0.0,0.0,0.0,0.0,0.0,0.0,0.0,0.0,0.0,1747524790.1309752,0.0, 2025-05-17 16:33:10.130
76.0,-77870.79547295517,90742.62866289956,-496572.0768656823,-36208.21669199666,-557510.7106579198,-584436.3372846053,-584669.6894967186,-584799.8660564263,0.228,0.158,0.968,192.0,0.0,0.0,0.0,0.0,0.0,0.0,0.0,0.0,0.0,1747524790.1310246,0.0, 2025-05-17 16:33:10.131
77.0,-77811.1610187484,90734.3138139622,-496463.179166696,-36142.949598187166,-557646.4304502524,-584474.5140641349,-584707.7768692705,-584838.2216499116,0.228,0.158,0.968,192.0,0.0,0.0,0.0,0.0,0.0,0.0,0.0,0.0,0.0,1747524790.1310737,0.0, 2025-05-17 16:33:10.131
78.0,-77723.27395955015,90760.33124450818,-496311.72374626686,-36044.24429467253,-557746.119230523,-584491.7696108543,-584720.8302880324,-584851.8115105404,0.222,0.156,0.964,192.0,6.0,240.0,4.0,224.0,30.0,32.0,0.0,0.0,0.0,1747524790.1311226,0.0, 2025-05-17 16:33:10.131
79.0,-77637.1750399083,90792.69657047949,-496150.7017792108,-35941.69449111158,-557841.9635107474,-584518.8599251342,-584745.9536488001,-584876.7560573526,0.222,0.156,0.964,192.0,0.0,0.0,0.0,0.0,0.0,0.0,0.0,0.0,0.0,1747524790.1311755,0.0, 2025-05-17 16:33:10.131
80.0,-77592.65036495333,90795.82581470322,-496018.64767296886,-35872.49349027795,-557969.1896401871,-584548.99007666,-584774.8321026363,-584905.2768832776,0.222,0.156,0.964,192.0,0.0,0.0,0.0,0.0,0.0,0.0,0.0,0.0,0.0,1747524790.131245,0.0, 2025-05-17 16:33:10.131
81.0,-77564.48716693964,90796.45166354797,-495891.9579853962,-35809.64038486962,-558102.0484092294,-584574.471065339,-584800.4919052711,-584930.9366859123,0.222,0.156,0.964,192.0,0.0,0.0,0.0,0.0,0.0,0.0,0.0,0.0,0.0,1747524790.1313236,0.0, 2025-05-17 16:33:10.131
82.0,-77514.95570122667,90828.81698951924,-495736.2110300316,-35719.87577913711,-558204.1511779012,-584595.9287400161,-584823.022463682,-584953.556651301,0.222,0.156,0.964,192.0,0.0,0.0,0.0,0.0,0.0,0.0,0.0,0.0,0.0,1747524790.1313732,0.0, 2025-05-17 16:33:10.131
83.0,-77461.84795640087,90876.2026877645,-495568.7517605724,-35618.48826628784,-558302.0518186154,-584608.7139378445,-584837.9534289782,-584968.9346514862,0.222,0.156,0.964,192.0,0.0,0.0,0.0,0.0,0.0,0.0,0.0,0.0,0.0,1747524790.1314223,0.0, 2025-05-17 16:33:10.131
84.0,-77456.03650284249,90889.7031414155,-495438.0387589978,-35552.77413758924,-558567.4117287889,-584642.4203684832,-584867.2789177035,-584998.1707332338,0.222,0.156,0.964,192.0,0.0,0.0,0.0,0.0,0.0,0.0,0.0,0.0,0.0,1747524790.131488,0.0, 2025-05-17 16:33:10.131
85.0,-77484.289107834,90876.2026877645,-495342.909734596,-35515.491427837784,-558659.858543856,-584681.491217791,-584900.2700925196,-585031.0725010721,0.222,0.156,0.964,192.0,0.0,0.0,0.0,0.0,0.0,0.0,0.0,0.0,0.0,1747524790.1315374,0.0, 2025-05-17 16:33:10.131
86.0,-77496.0908289064,90882.28236225634,-495235.2637332993,-35456.66163643142,-558504.7374373361,-584709.02856696,-584929.6849882228,-585060.3979897974,0.222,0.156,0.964,192.0,0.0,0.0,0.0,0.0,0.0,0.0,0.0,0.0,0.0,1747524790.1315868,0.0, 2025-05-17 16:33:10.131
87.0,-77484.02088690053,90913.12776960466,-495111.3456620391,-35371.18856563432,-558315.4628652886,-584717.0751949638,-584947.4769768092,-585078.4581993173,0.222,0.156,0.964,192.0,0.0,0.0,0.0,0.0,0.0,0.0,0.0,0.0,0.0,1747524790.1316488,0.0, 2025-05-17 16:33:10.131
88.0,-77500.02473593054,90919.38625805217,-495023.5480098186,-35309.58715791549,-558114.4759791465,-584727.4464043911,-584971.7062677988,-585103.0451182182,0.22,0.15,0.958,192.0,6.0,224.0,4.0,176.0,29.0,240.0,0.0,0.0,0.0,1747524790.1316996,0.0, 2025-05-17 16:33:10.131
89.0,-77533.64175959132,90910.98200213697,-494961.5889741885,-35261.48620384767,-557818.0024406913,-584767.1431025438,-584999.8694658125,-585130.7612813427,0.22,0.15,0.958,192.0,0.0,0.0,0.0,0.0,0.0,0.0,0.0,0.0,0.0,1747524790.1317775,0.0, 2025-05-17 16:33:10.131
90.0,-77540.52609688355,90929.39983956813,-494888.54347330856,-35188.530109945554,-557813.0850569111,-584790.3889167773,-585020.611884667,-585151.5931071751,0.22,0.15,0.958,192.0,0.0,0.0,0.0,0.0,0.0,0.0,0.0,0.0,0.0,1747524790.1318977,0.0, 2025-05-17 16:33:10.131
91.0,-77523.98580598662,90970.974084255,-494803.6068443784,-35093.49049252159,-557902.670848688,-584799.508428515,-585034.2017452958,-585165.093560826,0.22,0.15,0.958,192.0,0.0,0.0,0.0,0.0,0.0,0.0,0.0,0.0,0.0,1747524790.1320012,0.0, 2025-05-17 16:33:10.132
92.0,-77515.0451082045,91003.07118929282,-494737.6244947463,-35007.6597938132,-558000.6608963801,-584813.2771030995,-585045.4670245013,-585176.3588400315,0.22,0.15,0.958,192.0,0.0,0.0,0.0,0.0,0.0,0.0,0.0,0.0,0.0,1747524790.1320777,0.0, 2025-05-17 16:33:10.132
93.0,-77539.27439919405,91007.09450329478,-494710.8024014,-34950.17110707416,-558124.5789676403,-584835.539440577,-585063.7060479767,-585194.3296425736,0.22,0.15,0.958,192.0,0.0,0.0,0.0,0.0,0.0,0.0,0.0,0.0,0.0,1747524790.1321275,0.0, 2025-05-17 16:33:10.132
94.0,-77557.78164360306,91025.69115468158,-494678.258261473,-34879.80781552885,-558234.8177712939,-584848.8610802724,-585074.7925132266,-585205.6843287569,0.22,0.15,0.958,192.0,0.0,0.0,0.0,0.0,0.0,0.0,0.0,0.0,0.0,1747524790.132177,0.0, 2025-05-17 16:33:10.132
95.0,-77557.1557947583,91073.16625990464,-494622.91534220165,-34782.53302365935,-558317.8768536898,-584857.1759292098,-585082.4815133192,-585213.5521428052,0.22,0.15,0.958,192.0,0.0,0.0,0.0,0.0,0.0,0.0,0.0,0.0,0.0,1747524790.1322267,0.0, 2025-05-17 16:33:10.132
96.0,-77569.31514374199,91113.3993999242,-494578.8377021358,-34691.337906281704,-558406.300354755,-584871.9280805503,-585097.591292571,-585228.3042941457,0.22,0.15,0.958,192.0,0.0,0.0,0.0,0.0,0.0,0.0,0.0,0.0,0.0,1747524790.1322756,0.0, 2025-05-17 16:33:10.132
97.0,-77616.9690629207,91125.64815588572,-494566.4995391965,-34629.28946367377,-558523.6917166343,-584892.4916854491,-585120.2112579598,-585250.8348525566,0.22,0.15,0.958,192.0,0.0,0.0,0.0,0.0,0.0,0.0,0.0,0.0,0.0,1747524790.1323252,0.0, 2025-05-17 16:33:10.132
98.0,-77664.44416814377,91141.9202258492,-494553.2673064789,-34566.79398617673,-558724.410381843,-584907.7802786565,-585135.6786651228,-585266.4810736753,0.208,0.15,0.958,192.0,6.0,128.0,4.0,176.0,29.0,240.0,0.0,0.0,0.0,1747524790.132374,0.0, 2025-05-17 16:33:10.132
99.0,-77694.12728478042,91177.86183093333,-494520.2761316629,-34484.18193866991,-558900.2739072173,-584925.035825376,-585145.066397794,-585275.7793993687,0.208,0.15,0.958,192.0,0.0,0.0,0.0,0.0,0.0,0.0,0.0,0.0,0.0,1747524790.132466,0.0, 2025-05-17 16:33:10.132
100.0,-77733.19813408829,91203.25341263454,-494501.232445387,-34411.31525174561,-558758.6532543484,-584937.7316162267,-585157.4045607335,-585288.0281553302,0.208,0.15,0.958,192.0,0.0,0.0,0.0,0.0,0.0,0.0,0.0,0.0,0.0,1747524790.1325505,0.0, 2025-05-17 16:33:10.132
101.0,-77806.60126287953,91193.7762729855,-494521.5278293524,-34373.67491408288,-558609.6118223205,-584957.3117443696,-585182.2597005677,-585313.3303300537,0.208,0.15,0.958,192.0,0.0,0.0,0.0,0.0,0.0,0.0,0.0,0.0,0.0,1747524790.1326108,0.0, 2025-05-17 16:33:10.132
102.0,-77879.46794980383,91178.84530768936,-494548.7969575879,-34337.733308998744,-558454.4907158007,-584962.2291281497,-585200.7669449768,-585331.658760507,0.208,0.15,0.958,192.0,0.0,0.0,0.0,0.0,0.0,0.0,0.0,0.0,0.0,1747524790.1326864,0.0, 2025-05-17 16:33:10.132
103.0,-77909.50869435177,91200.75001725556,-494544.9524575416,-34263.97255229623,-558129.3175374648,-584975.2825469116,-585212.8368869825,-585343.4604815794,0.208,0.15,0.958,192.0,0.0,0.0,0.0,0.0,0.0,0.0,0.0,0.0,0.0,1747524790.132768,0.0, 2025-05-17 16:33:10.132
104.0,-77915.85658977707,91242.14544798678,-494526.6240270882,-34170.63166745087,-557972.5871053443,-584996.2931866996,-585223.4763173433,-585354.3681328736,0.208,0.15,0.958,192.0,0.0,0.0,0.0,0.0,0.0,0.0,0.0,0.0,0.0,1747524790.1329005,0.0, 2025-05-17 16:33:10.132
105.0,-77944.01978779075,91254.66242488175,-494540.3927016727,-34104.55991084098,-558082.1106531753,-585005.5021054152,-585238.5860965952,-585369.4779121254,0.208,0.15,0.958,192.0,0.0,0.0,0.0,0.0,0.0,0.0,0.0,0.0,0.0,1747524790.1329844,0.0, 2025-05-17 16:33:10.132
106.0,-77977.72621842936,91258.05989003896,-494566.5889461743,-34048.76995668053,-558210.4096663487,-585024.545791691,-585257.2721549597,-585388.0745635122,0.208,0.15,0.958,192.0,0.0,0.0,0.0,0.0,0.0,0.0,0.0,0.0,0.0,1747524790.1330633,0.0, 2025-05-17 16:33:10.133
107.0,-77978.26266029628,91291.8557276554,-494562.65503915015,-33964.995618462046,-558308.8467489298,-585034.6487801849,-585263.2624224738,-585394.0648310262,0.208,0.15,0.958,192.0,0.0,0.0,0.0,0.0,0.0,0.0,0.0,0.0,0.0,1747524790.133141,0.0, 2025-05-17 16:33:10.133
108.0,-77967.98085784685,91336.11218167689,-494546.4723761645,-33867.89964054819,-558399.5054244406,-585044.0365128561,-585270.7726086108,-585401.3962032076,0.18,0.166,0.984,192.0,5.0,160.0,5.0,48.0,30.0,192.0,0.0,0.0,0.0,1747524790.1332204,0.0, 2025-05-17 16:33:10.133
109.0,-77988.27624181226,91348.45034461624,-494561.1351205272,-33802.364325805225,-558524.0493445456,-585054.4077222834,-585280.160341282,-585410.8733428566,0.18,0.166,0.984,192.0,0.0,0.0,0.0,0.0,0.0,0.0,0.0,0.0,0.0,1747524790.133306,0.0, 2025-05-17 16:33:10.133
110.0,-78020.37334685009,91349.70204230573,-494587.5101789844,-33752.1176042697,-558661.6466834125,-585073.1831876258,-585300.0086903583,-585430.5428779772,0.18,0.166,0.984,192.0,0.0,0.0,0.0,0.0,0.0,0.0,0.0,0.0,0.0,1747524790.1333864,0.0, 2025-05-17 16:33:10.133
111.0,-78027.79412600925,91376.34532169644,-494587.1525510732,-33677.015742899865,-558778.9486383139,-585082.5709202971,-585312.2574463198,-585442.7916339388,0.18,0.166,0.984,192.0,0.0,0.0,0.0,0.0,0.0,0.0,0.0,0.0,0.0,1747524790.133464,0.0, 2025-05-17 16:33:10.133
112.0,-78015.00892818082,91420.51236874014,-494567.8406438638,-33583.138416187576,-558997.5486990868,-585097.3230716375,-585324.4167953035,-585455.3086108337,0.18,0.166,0.984,192.0,0.0,0.0,0.0,0.0,0.0,0.0,0.0,0.0,0.0,1747524790.1335416,0.0, 2025-05-17 16:33:10.133
113.0,-78035.12549819058,91430.16832234482,-494584.38093476073,-33523.32514802518,-559131.3015379073,-585114.3103974236,-585333.5363070413,-585464.6963435049,0.18,0.166,0.984,192.0,0.0,0.0,0.0,0.0,0.0,0.0,0.0,0.0,0.0,1747524790.1336212,0.0, 2025-05-17 16:33:10.133
114.0,-78081.70653363544,91413.98565935918,-494628.1009469153,-33488.63524063054,-559013.463141139,-585133.5328976552,-585353.0270282063,-585483.4718088474,0.18,0.166,0.984,192.0,0.0,0.0,0.0,0.0,0.0,0.0,0.0,0.0,0.0,1747524790.1337233,0.0, 2025-05-17 16:33:10.133
115.0,-78113.26719680634,91413.35981051443,-494658.4099123967,-33433.82876322613,-558861.5606858206,-585157.5833746891,-585381.1008192422,-585511.9032277946,0.18,0.166,0.984,192.0,0.0,0.0,0.0,0.0,0.0,0.0,0.0,0.0,0.0,1747524790.1338007,0.0, 2025-05-17 16:33:10.133
116.0,-78120.95619689897,91439.73486897167,-494662.7908543099,-33355.150622743444,-558685.339532535,-585155.4376072213,-585391.8296565807,-585522.8108790888,0.18,0.166,0.984,192.0,0.0,0.0,0.0,0.0,0.0,0.0,0.0,0.0,0.0,1747524790.1338947,0.0, 2025-05-17 16:33:10.133
117.0,-78143.30794135427,91455.20227613476,-494675.3972381827,-33289.2576800892,-558421.7677619181,-585166.4346654933,-585409.8898661006,-585540.3346467417,0.18,0.166,0.984,192.0,0.0,0.0,0.0,0.0,0.0,0.0,0.0,0.0,0.0,1747524790.1339989,0.0, 2025-05-17 16:33:10.133
118.0,-78183.0046395069,91457.34804360248,-494697.6595756602,-33237.13341201942,-558206.8333872359,-585203.627968267,-585432.7780524228,-585563.5804609753,0.16,0.182,1.0,192.0,5.0,0.0,5.0,176.0,31.0,64.0,0.0,0.0,0.0,1747524790.134082,0.0, 2025-05-17 16:33:10.134
119.0,-78207.59155840773,91480.23622992472,-494695.4244012147,-33169.18410887529,-558290.5183184765,-585210.3334916036,-585444.222145584,-585575.3821820477,0.16,0.182,1.0,192.0,0.0,0.0,0.0,0.0,0.0,0.0,0.0,0.0,0.0,1747524790.1342213,0.0, 2025-05-17 16:33:10.134
120.0,-78207.77037236337,91533.2545677727,-494656.53236586245,-33072.26694491708,-558377.332493941,-585212.12163116,-585446.0102851404,-585577.1703216041,0.16,0.182,1.0,192.0,0.0,0.0,0.0,0.0,0.0,0.0,0.0,0.0,0.0,1747524790.1343117,0.0, 2025-05-17 16:33:10.134
121.0,-78223.41659348209,91579.83560321757,-494618.3555863328,-32984.20107176317,-558472.7297392762,-585223.4763173433,-585452.9840294104,-585584.5016937854,0.16,0.182,1.0,192.0,0.0,0.0,0.0,0.0,0.0,0.0,0.0,0.0,0.0,1747524790.6050062,0.0, 2025-05-17 16:33:10.605
122.0,-78280.54765230986,91599.3263243826,-494603.60343499226,-32923.58314080037,-558594.2338221353,-585241.7153408189,-585468.4514365735,-585599.5220660594,0.16,0.182,1.0,192.0,0.0,0.0,0.0,0.0,0.0,0.0,0.0,0.0,0.0,1747524790.605111,0.0, 2025-05-17 16:33:10.605
123.0,-78346.53000194192,91624.2708711947,-494578.748295158,-32856.080872545346,-558708.853567702,-585258.8814805605,-585484.4552856035,-585615.5259150894,0.16,0.182,1.0,192.0,0.0,0.0,0.0,0.0,0.0,0.0,0.0,0.0,0.0,1747524790.605178,0.0, 2025-05-17 16:33:10.605
124.0,-78393.11103738679,91682.47481375631,-494518.3985851287,-32754.067510851328,-558787.7105221404,-585260.9378410504,-585486.7798670268,-585617.8504965127,0.16,0.182,1.0,192.0,0.0,0.0,0.0,0.0,0.0,0.0,0.0,0.0,0.0,1747524790.605245,0.0, 2025-05-17 16:33:10.605
125.0,-78454.62303812779,91738.26476791676,-494463.7709216799,-32649.46134680049,-558866.1204416896,-585263.0836085181,-585489.9091112505,-585620.9797407365,0.16,0.182,1.0,192.0,0.0,0.0,0.0,0.0,0.0,0.0,0.0,0.0,0.0,1747524790.6053133,0.0, 2025-05-17 16:33:10.605
126.0,-78556.72580679963,91760.7059193499,-494446.1577470491,-32572.034904007305,-559000.3203153992,-585275.2429575018,-585504.3930416576,-585635.731892077,0.16,0.182,1.0,192.0,0.0,0.0,0.0,0.0,0.0,0.0,0.0,0.0,0.0,1747524790.6053991,0.0, 2025-05-17 16:33:10.605
127.0,-78676.88878499136,91771.52416366628,-494443.3861307366,-32497.737705437867,-559263.3556441494,-585292.3196902657,-585515.1218789961,-585646.5501363934,0.16,0.182,1.0,192.0,0.0,0.0,0.0,0.0,0.0,0.0,0.0,0.0,0.0,1747524790.6054544,0.0, 2025-05-17 16:33:10.605
128.0,-78780.42206530835,91801.5649082142,-494427.9187235736,-32397.60189027809,-559209.0856086118,-585302.8697136486,-585521.9168093106,-585653.0768457743,0.166,0.192,1.008,192.0,5.0,48.0,6.0,0.0,31.0,128.0,0.0,0.0,0.0,1747524790.6055048,0.0, 2025-05-17 16:33:10.605
129.0,-78879.39558975644,91837.50651329834,-494414.9547117895,-32286.647830801947,-558993.5253850848,-585301.7074229369,-585526.1189372682,-585657.5471946654,0.166,0.192,1.008,192.0,0.0,0.0,0.0,0.0,0.0,0.0,0.0,0.0,0.0,1747524790.6056087,0.0, 2025-05-17 16:33:10.605
130.0,-79015.651823956,91836.43362956448,-494451.43275874056,-32208.237911252727,-558807.5588712167,-585299.5616554691,-585538.9041350966,-585670.242985516,0.166,0.192,1.008,192.0,0.0,0.0,0.0,0.0,0.0,0.0,0.0,0.0,0.0,1747524790.6056824,0.0, 2025-05-17 16:33:10.605
131.0,-79159.06061638125,91828.38700156058,-494507.0438989453,-32133.40427081636,-558513.3205072071,-585303.2273415598,-585544.9838095885,-585676.4120669856,0.166,0.192,1.008,192.0,0.0,0.0,0.0,0.0,0.0,0.0,0.0,0.0,0.0,1747524790.6057675,0.0, 2025-05-17 16:33:10.605
132.0,-79263.84559438772,91860.57351357622,-494532.8825155357,-32019.23156013865,-558262.8915623297,-585322.2710278358,-585547.5766119453,-585678.736648409,0.166,0.192,1.008,192.0,0.0,0.0,0.0,0.0,0.0,0.0,0.0,0.0,0.0,1747524790.6058843,0.0, 2025-05-17 16:33:10.605
133.0,-79349.13985122918,91912.87659560164,-494549.4228064326,-31886.909232963237,-558286.4055974968,-585325.0426441482,-585550.9740771025,-585682.1341135663,0.166,0.192,1.008,192.0,0.0,0.0,0.0,0.0,0.0,0.0,0.0,0.0,0.0,1747524790.605936,0.0, 2025-05-17 16:33:10.605
134.0,-79462.86552701778,91933.44020050052,-494605.39157454873,-31785.34290615832,-558361.0604239774,-585329.3341790837,-585560.1829958181,-585691.3430322818,0.166,0.192,1.008,192.0,0.0,0.0,0.0,0.0,0.0,0.0,0.0,0.0,0.0,1747524790.606044,0.0, 2025-05-17 16:33:10.606
135.0,-79590.80691227996,91937.5529214803,-494684.6061568983,-31700.40627722815,-558449.7521459762,-585325.9367139265,-585560.719437685,-585691.9688811265,0.166,0.192,1.008,192.0,0.0,0.0,0.0,0.0,0.0,0.0,0.0,0.0,0.0,1747524790.6060953,0.0, 2025-05-17 16:33:10.606
136.0,-79690.76391348409,91969.47121256248,-494743.8829831938,-31592.58146197575,-558510.6382978724,-585325.4896790374,-585558.1266353282,-585689.197264814,0.166,0.192,1.008,192.0,0.0,0.0,0.0,0.0,0.0,0.0,0.0,0.0,0.0,1747524790.6061468,0.0, 2025-05-17 16:33:10.606
137.0,-79765.86577485393,92024.724724856,-494783.4902743686,-31462.673123201508,-558549.6197402024,-585325.5790860151,-585555.6232399492,-585686.9620903686,0.166,0.192,1.008,192.0,0.0,0.0,0.0,0.0,0.0,0.0,0.0,0.0,0.0,1747524790.6061969,0.0, 2025-05-17 16:33:10.606
138.0,-79863.67700859034,92053.33495775878,-494850.5455077345,-31361.64323826352,-558617.8372642801,-585329.3341790837,-585557.8584143947,-585688.750229925,0.202,0.178,0.992,192.0,6.0,80.0,5.0,144.0,31.0,0.0,0.0,0.0,0.0,1747524790.6062467,0.0, 2025-05-17 16:33:10.606
139.0,-79982.85651002605,92060.04048109538,-494940.39952044486,-31289.67062111743,-558711.6251840146,-585334.2515628638,-585560.8982516406,-585691.7900671709,0.202,0.178,0.992,192.0,0.0,0.0,0.0,0.0,0.0,0.0,0.0,0.0,0.0,1747524790.6063004,0.0, 2025-05-17 16:33:10.606
140.0,-80081.91944145196,92083.19688835109,-495012.7297655022,-31206.611538721507,-558789.9456965859,-585334.3409698417,-585559.4677399955,-585690.8959973927,0.202,0.178,0.992,192.0,0.0,0.0,0.0,0.0,0.0,0.0,0.0,0.0,0.0,1747524790.60635,0.0, 2025-05-17 16:33:10.606
141.0,-80147.27594223928,92129.42029588466,-495059.3108009471,-31101.20071187028,-558845.2886158573,-585331.9269814405,-585557.5007864834,-585688.750229925,0.202,0.178,0.992,192.0,0.0,0.0,0.0,0.0,0.0,0.0,0.0,0.0,0.0,1747524790.6063995,0.0, 2025-05-17 16:33:10.606
142.0,-80217.37101285113,92159.90807532168,-495118.4088132869,-31013.671280583298,-558919.3175934933,-585324.8638301926,-585551.689332925,-585682.9387763666,0.202,0.178,0.992,192.0,0.0,0.0,0.0,0.0,0.0,0.0,0.0,0.0,0.0,1747524790.6064496,0.0, 2025-05-17 16:33:10.606
143.0,-80306.50976973888,92156.95764505358,-495207.5475701747,-30959.40124504581,-559065.3191882753,-585334.8774117086,-585563.0440191083,-585694.5616834834,0.202,0.178,0.992,192.0,0.0,0.0,0.0,0.0,0.0,0.0,0.0,0.0,0.0,1747524790.6064987,0.0, 2025-05-17 16:33:10.606
144.0,-80382.05866599783,92153.47077291856,-495297.7592107962,-30905.667651375254,-559323.4371332452,-585356.15627243,-585577.6173564933,-585709.3138348239,0.202,0.178,0.992,192.0,0.0,0.0,0.0,0.0,0.0,0.0,0.0,0.0,0.0,1747524790.6066608,0.0, 2025-05-17 16:33:10.606
145.0,-80420.05663157185,92172.33564523884,-495364.4568162509,-30828.33061555989,-559242.7026322726,-585357.8550050086,-585576.723286715,-585708.4197650456,0.202,0.178,0.992,192.0,0.0,0.0,0.0,0.0,0.0,0.0,0.0,0.0,0.0,1747524790.6067116,0.0, 2025-05-17 16:33:10.606
146.0,-80457.60756225677,92175.82251737388,-495445.3701311792,-30765.745731085037,-559058.5242579608,-585359.7325515428,-585582.9817751625,-585714.1418116263,0.202,0.178,0.992,192.0,0.0,0.0,0.0,0.0,0.0,0.0,0.0,0.0,0.0,1747524790.6067667,0.0, 2025-05-17 16:33:10.606
147.0,-80520.01363277598,92145.1559239812,-495561.0627604798,-30736.867277248777,-558910.5557096667,-585362.682981811,-585597.0186706804,-585728.5363350555,0.202,0.178,0.992,192.0,0.0,0.0,0.0,0.0,0.0,0.0,0.0,0.0,0.0,1747524790.6068327,0.0, 2025-05-17 16:33:10.606
148.0,-80570.79679617845,92118.51264459046,-495673.8049595124,-30704.50195127749,-558711.7145909923,-585368.2262144359,-585614.5424383334,-585745.8812887528,0.234,0.154,0.964,192.0,7.0,80.0,4.0,208.0,30.0,32.0,0.0,0.0,0.0,1747524790.6068835,0.0, 2025-05-17 16:33:10.606
149.0,-80574.10485435782,92131.56606335237,-495747.2080883036,-30634.58569462129,-558389.4024359467,-585397.4622961835,-585627.1488222062,-585758.3982656477,0.234,0.154,0.964,192.0,0.0,0.0,0.0,0.0,0.0,0.0,0.0,0.0,0.0,1747524790.6069622,0.0, 2025-05-17 16:33:10.606
150.0,-80558.8162611504,92156.24238923102,-495805.5014378431,-30556.53340298336,-558391.0117615475,-585402.3796799636,-585629.9204385186,-585761.5275098715,0.234,0.154,0.964,192.0,0.0,0.0,0.0,0.0,0.0,0.0,0.0,0.0,0.0,1747524790.607012,0.0, 2025-05-17 16:33:10.607
151.0,-80572.58493573486,92144.88770304772,-495894.550787753,-30512.81339082878,-558519.3107747211,-585411.4991917014,-585644.761996837,-585776.279661212,0.234,0.154,0.964,192.0,0.0,0.0,0.0,0.0,0.0,0.0,0.0,0.0,0.0,1747524790.6070616,0.0, 2025-05-17 16:33:10.607
152.0,-80586.17479636369,92125.21816792706,-495986.9081958424,-30480.001029968385,-558653.9576833198,-585428.0394825983,-585658.7094853771,-585789.6907078852,0.234,0.154,0.964,192.0,0.0,0.0,0.0,0.0,0.0,0.0,0.0,0.0,0.0,1747524790.6071107,0.0, 2025-05-17 16:33:10.607
153.0,-80558.72685417258,92145.1559239812,-496034.65152199887,-30414.555122203248,-558751.9477310119,-585435.7284826909,-585663.2692412459,-585793.9822428206,0.234,0.154,0.964,192.0,0.0,0.0,0.0,0.0,0.0,0.0,0.0,0.0,0.0,1747524790.6071603,0.0, 2025-05-17 16:33:10.607
154.0,-80518.49371415302,92174.92844759564,-496067.0168479701,-30341.24140038984,-558844.0369181677,-585446.8149479408,-585673.0146018284,-585803.5487894474,0.234,0.154,0.964,192.0,0.0,0.0,0.0,0.0,0.0,0.0,0.0,0.0,0.0,1747524790.60721,0.0, 2025-05-17 16:33:10.607
155.0,-80513.66573735068,92172.1568312832,-496127.9924068442,-30303.064620860176,-558973.6770360086,-585466.4844830614,-585692.23710206,-585823.2183245681,0.234,0.154,0.964,192.0,0.0,0.0,0.0,0.0,0.0,0.0,0.0,0.0,0.0,1747524790.6072593,0.0, 2025-05-17 16:33:10.607
156.0,-80517.42083041917,92159.72926136604,-496190.7561052747,-30278.209481025875,-559116.996421456,-585490.6243670732,-585718.4333465616,-585849.4145690697,0.234,0.154,0.964,192.0,0.0,0.0,0.0,0.0,0.0,0.0,0.0,0.0,0.0,1747524790.607308,0.0, 2025-05-17 16:33:10.607
157.0,-80490.5987370728,92173.67674990615,-496218.7404893328,-30230.37674789152,-559295.542156165,-585502.8731230346,-585732.291428124,-585862.825615743,0.234,0.154,0.964,192.0,0.0,0.0,0.0,0.0,0.0,0.0,0.0,0.0,0.0,1747524790.6073568,0.0, 2025-05-17 16:33:10.607
158.0,-80446.69991096258,92196.11790133928,-496229.9163615604,-30176.37493328749,-559530.5036938791,-585522.8108790888,-585744.0931491964,-585874.9849647266,0.24,0.124,0.934,192.0,7.0,128.0,3.0,224.0,29.0,48.0,0.0,0.0,0.0,1747524790.6074069,0.0, 2025-05-17 16:33:10.607
159.0,-80431.76894566644,92178.41531973067,-496270.9541643804,-30163.3215145256,-559464.7895651805,-585552.0469608363,-585770.8258355649,-585901.7176510951,0.24,0.124,0.934,192.0,0.0,0.0,0.0,0.0,0.0,0.0,0.0,0.0,0.0,1747524790.607528,0.0, 2025-05-17 16:33:10.607
160.0,-80428.01385259794,92139.43387740065,-496326.47589760734,-30171.45754950733,-559346.9511684121,-585578.5114262714,-585799.0784405564,-585930.1490700423,0.24,0.124,0.934,192.0,0.0,0.0,0.0,0.0,0.0,0.0,0.0,0.0,0.0,1747524790.6075785,0.0, 2025-05-17 16:33:10.607
161.0,-80392.42987542509,92121.73129579202,-496350.9734095304,-30158.67235167889,-559207.2974690554,-585601.0419846823,-585830.5496967494,-585961.7097332132,0.24,0.124,0.934,192.0,0.0,0.0,0.0,0.0,0.0,0.0,0.0,0.0,0.0,1747524790.6076283,0.0, 2025-05-17 16:33:10.607
162.0,-80327.52040952689,92125.48638886052,-496345.5195838833,-30123.62481637297,-559014.893652784,-585606.0487754403,-585850.5768597814,-585981.9157102008,0.24,0.124,0.934,192.0,0.0,0.0,0.0,0.0,0.0,0.0,0.0,0.0,0.0,1747524790.6076996,0.0, 2025-05-17 16:33:10.607
163.0,-80267.97536229795,92118.6914585461,-496340.155165214,-30097.87560676045,-558711.7145909923,-585639.218764212,-585873.7332670371,-586004.9827104787,0.24,0.124,0.934,192.0,0.0,0.0,0.0,0.0,0.0,0.0,0.0,0.0,0.0,1747524790.6077604,0.0, 2025-05-17 16:33:10.607
164.0,-80221.66254778655,92097.05496991336,-496340.5127931253,-30089.2031299118,-558726.7349632663,-585676.4120669856,-585908.1549534983,-586039.1361760064,0.24,0.124,0.934,192.0,0.0,0.0,0.0,0.0,0.0,0.0,0.0,0.0,0.0,1747524790.6078384,0.0, 2025-05-17 16:33:10.607
165.0,-80157.11070979961,92093.56809777832,-496309.8461997326,-30062.29162958761,-558862.5441625768,-585703.0553463764,-585936.8545933788,-586068.0146298426,0.24,0.124,0.934,192.0,0.0,0.0,0.0,0.0,0.0,0.0,0.0,0.0,0.0,1747524790.607888,0.0, 2025-05-17 16:33:10.607
166.0,-80062.51812726476,92121.01603996946,-496231.8833150725,-30004.26650098163,-558963.3952335591,-585723.5295442975,-585953.4842912536,-586084.5549207396,0.24,0.124,0.934,192.0,0.0,0.0,0.0,0.0,0.0,0.0,0.0,0.0,0.0,1747524790.6079376,0.0, 2025-05-17 16:33:10.607
167.0,-79983.21413793734,92134.87412153174,-496149.4500815213,-29957.68546553677,-559075.3327697912,-585743.1990794181,-585970.5610240175,-586101.9892814147,0.24,0.124,0.934,192.0,0.0,0.0,0.0,0.0,0.0,0.0,0.0,0.0,0.0,1747524790.60799,0.0, 2025-05-17 16:33:10.607
168.0,-79932.87800942398,92118.15501667916,-496077.119836464,-29937.30067459353,-559214.6288412367,-585784.773324105,-586010.6153500814,-586141.6859795674,0.22,0.102,0.932,192.0,6.0,224.0,3.0,48.0,29.0,32.0,0.0,0.0,0.0,1747524790.608042,0.0, 2025-05-17 16:33:10.608
169.0,-79874.4058459289,92107.87321422974,-495982.4378469512,-29907.170523067776,-559344.7159939667,-585819.731452433,-586045.5734784096,-586176.7335148732,0.22,0.102,0.932,192.0,0.0,0.0,0.0,0.0,0.0,0.0,0.0,0.0,0.0,1747524790.6080997,0.0, 2025-05-17 16:33:10.608
170.0,-79780.61792619442,92131.11902846326,-495843.3205894614,-29835.644940810795,-559437.6992509007,-585839.5798015094,-586066.1370833084,-586197.2077127943,0.22,0.102,0.932,192.0,0.0,0.0,0.0,0.0,0.0,0.0,0.0,0.0,0.0,1747524790.6081526,0.0, 2025-05-17 16:33:10.608
171.0,-79693.71434375219,92145.51355189248,-495706.0808785058,-29765.996905088057,-559541.6795661068,-585861.0374761865,-586089.7405254532,-586220.9899688947,0.22,0.102,0.932,192.0,0.0,0.0,0.0,0.0,0.0,0.0,0.0,0.0,0.0,1747524790.6082091,0.0, 2025-05-17 16:33:10.608
172.0,-79640.51719194856,92125.12876094924,-495600.8488656103,-29725.763765068503,-559805.4301506794,-585900.5553603835,-586126.5762003155,-586258.0938646905,0.22,0.102,0.932,192.0,0.0,0.0,0.0,0.0,0.0,0.0,0.0,0.0,0.0,1747524790.6082633,0.0, 2025-05-17 16:33:10.608
173.0,-79598.40650539476,92089.81300470984,-495506.1668760976,-29691.16326465169,-559925.6825358489,-585954.7359889431,-586174.2301194943,-586305.7477838693,0.22,0.102,0.932,192.0,0.0,0.0,0.0,0.0,0.0,0.0,0.0,0.0,0.0,1747524790.6083136,0.0, 2025-05-17 16:33:10.608
174.0,-79526.70210918214,92082.30281857286,-495381.5335490148,-29625.0915080418,-559756.613940789,-585994.8797219848,-586216.340806048,-586348.0372843788,0.22,0.102,0.932,192.0,0.0,0.0,0.0,0.0,0.0,0.0,0.0,0.0,0.0,1747524790.6084516,0.0, 2025-05-17 16:33:10.608
175.0,-79450.97439896756,92076.75958594796,-495249.390035795,-29551.42015831711,-559569.574543187,-586011.5094198596,-586245.3086668621,-586376.7369242593,0.22,0.102,0.932,192.0,0.0,0.0,0.0,0.0,0.0,0.0,0.0,0.0,0.0,1747524790.6085017,0.0, 2025-05-17 16:33:10.608
176.0,-79408.32727054683,92042.69552739806,-495144.873278722,-29504.302681005323,-559317.2680517755,-586034.4870131597,-586276.6011090996,-586408.0293664967,0.22,0.102,0.932,192.0,0.0,0.0,0.0,0.0,0.0,0.0,0.0,0.0,0.0,1747524790.6085515,0.0, 2025-05-17 16:33:10.608
177.0,-79364.96488630354,92015.0687712513,-495038.836603026,-29451.105529201694,-559080.8760024161,-586083.3926300278,-586311.4698304498,-586442.898087847,0.22,0.102,0.932,192.0,0.0,0.0,0.0,0.0,0.0,0.0,0.0,0.0,0.0,1747524790.608616,0.0, 2025-05-17 16:33:10.608
178.0,-79282.08461786326,92030.26795748092,-494892.835008244,-29352.48963266488,-559120.5727005688,-586114.0592234206,-586342.3152377981,-586473.7434951954,0.186,0.09,0.944,192.0,5.0,208.0,2.0,208.0,29.0,128.0,0.0,0.0,0.0,1747524790.608666,0.0, 2025-05-17 16:33:10.608
179.0,-79196.7903610218,92051.99385309148,-494741.3795878148,-29241.98260807784,-559186.1080153118,-586147.7656540591,-586378.5250638158,-586509.8639142351,0.186,0.09,0.944,192.0,0.0,0.0,0.0,0.0,0.0,0.0,0.0,0.0,0.0,1747524790.6087515,0.0, 2025-05-17 16:33:10.608
180.0,-79151.7292441999,92038.58280641829,-494627.02806318144,-29162.499804794767,-559283.02517927,-586172.5313869156,-586407.1352967186,-586538.2953331823,0.186,0.09,0.944,192.0,0.0,0.0,0.0,0.0,0.0,0.0,0.0,0.0,0.0,1747524790.608801,0.0, 2025-05-17 16:33:10.608
181.0,-79119.98976707338,92018.55564338632,-494523.8524107757,-29091.510664404712,-559385.3067618974,-586204.2708640422,-586436.6395993995,-586567.8890428412,0.186,0.09,0.944,192.0,0.0,0.0,0.0,0.0,0.0,0.0,0.0,0.0,0.0,1747524790.6088495,0.0, 2025-05-17 16:33:10.608
182.0,-79067.15024318102,92028.47981792448,-494392.60296733415,-28990.570186444544,-559453.8819138863,-586239.1395853924,-586469.7201811934,-586601.0590316128,0.186,0.09,0.944,192.0,0.0,0.0,0.0,0.0,0.0,0.0,0.0,0.0,0.0,1747524790.608899,0.0, 2025-05-17 16:33:10.608
183.0,-79000.81026563767,92055.74894615996,-494243.4721283284,-28866.38389425086,-559499.8371004865,-586256.8421670011,-586486.7075069795,-586617.509915532,0.186,0.09,0.944,192.0,0.0,0.0,0.0,0.0,0.0,0.0,0.0,0.0,0.0,1747524790.608948,0.0, 2025-05-17 16:33:10.608
184.0,-78964.60043962007,92054.58665544828,-494122.7727082697,-28766.42689304673,-559572.7037874107,-586292.2473302183,-586520.7715655293,-586651.5739740818,0.186,0.09,0.944,192.0,0.0,0.0,0.0,0.0,0.0,0.0,0.0,0.0,0.0,1747524790.608997,0.0, 2025-05-17 16:33:10.608
185.0,-78948.6859975679,92035.54296917235,-494021.4746023983,-28681.31145016092,-559660.5014396312,-586328.0995283246,-586554.7462171013,-586686.0850675207,0.186,0.09,0.944,192.0,0.0,0.0,0.0,0.0,0.0,0.0,0.0,0.0,0.0,1747524790.6090467,0.0, 2025-05-17 16:33:10.609
186.0,-78914.1749041289,92037.8675505957,-493899.4340776723,-28571.69849535209,-559723.8015799286,-586352.7758542033,-586578.5284732019,-586710.2249515326,0.186,0.09,0.944,192.0,0.0,0.0,0.0,0.0,0.0,0.0,0.0,0.0,0.0,1747524790.6090956,0.0, 2025-05-17 16:33:10.609
187.0,-78857.58028716806,92067.37185327672,-493748.9621339992,-28436.42573790857,-559759.117336168,-586369.405552078,-586595.0687640988,-586726.8546494073,0.186,0.09,0.944,192.0,0.0,0.0,0.0,0.0,0.0,0.0,0.0,0.0,0.0,1747524790.6091444,0.0, 2025-05-17 16:33:10.609
188.0,-78823.51622861817,92074.5244115024,-493618.1597254467,-28317.7826783398,-559814.0132205503,-586400.876808271,-586626.0035784249,-586757.7894637334,0.17,0.086,0.95,192.0,5.0,80.0,2.0,176.0,29.0,176.0,0.0,0.0,0.0,1747524790.6092668,0.0, 2025-05-17 16:33:10.609
189.0,-78817.52596110415,92057.53708571638,-493509.2620264604,-28216.126944557065,-559888.5786400532,-586437.4442621999,-586662.6604393317,-586794.4463246401,0.17,0.086,0.95,192.0,0.0,0.0,0.0,0.0,0.0,0.0,0.0,0.0,0.0,1747524790.6093292,0.0, 2025-05-17 16:33:10.609
190.0,-78799.37634460644,92057.35827176074,-493383.1981877325,-28093.818198897625,-559939.5406174113,-586474.3693440402,-586699.6749281496,-586831.1031855468,0.17,0.086,0.95,192.0,0.0,0.0,0.0,0.0,0.0,0.0,0.0,0.0,0.0,1747524790.6093793,0.0, 2025-05-17 16:33:10.609
191.0,-78756.46099525226,92083.91214417364,-493239.7893953073,-27938.51827842215,-559955.2762455078,-586498.5092280519,-586723.5465912279,-586855.0642556029,0.17,0.086,0.95,192.0,0.0,0.0,0.0,0.0,0.0,0.0,0.0,0.0,0.0,1747524790.6094286,0.0, 2025-05-17 16:33:10.609
192.0,-78725.8838088374,92096.51852804644,-493127.0471962747,-27791.35439292841,-559976.197478318,-586528.1029377107,-586753.0508939088,-586884.9261861952,0.17,0.086,0.95,192.0,0.0,0.0,0.0,0.0,0.0,0.0,0.0,0.0,0.0,1747524790.6095006,0.0, 2025-05-17 16:33:10.609
193.0,-78725.97321581522,92078.6371324822,-493062.8529861991,-27675.751170605563,-560026.2653858978,-586556.8919845691,-586781.5717198339,-586913.536419098,0.17,0.086,0.95,192.0,0.0,0.0,0.0,0.0,0.0,0.0,0.0,0.0,0.0,1747524790.6095505,0.0, 2025-05-17 16:33:10.609
194.0,-78722.03930879108,92066.29896954288,-493009.1193925285,-27557.5551459259,-560071.5053166754,-586582.9988220929,-586807.5891503799,-586939.3750356883,0.17,0.086,0.95,192.0,0.0,0.0,0.0,0.0,0.0,0.0,0.0,0.0,0.0,1747524790.609623,0.0, 2025-05-17 16:33:10.609
195.0,-78682.70023854975,92090.08122564331,-492926.9543799108,-27408.960748787016,-560083.0388168143,-586602.2213223245,-586826.9010575892,-586958.8657568534,0.17,0.086,0.95,192.0,0.0,0.0,0.0,0.0,0.0,0.0,0.0,0.0,0.0,1747524790.6096728,0.0, 2025-05-17 16:33:10.609
196.0,-78650.60313351192,92109.57194680834,-492854.89235578687,-27271.899851787075,-560105.8375961587,-586619.5662760218,-586844.51423222,-586976.3895245063,0.17,0.086,0.95,192.0,0.0,0.0,0.0,0.0,0.0,0.0,0.0,0.0,0.0,1747524790.6097224,0.0, 2025-05-17 16:33:10.609
197.0,-78657.39806382633,92096.60793502428,-492820.64948328136,-27174.982687828862,-560168.5118876115,-586646.2095554125,-586871.4257325442,-587003.032803897,0.17,0.086,0.95,192.0,0.0,0.0,0.0,0.0,0.0,0.0,0.0,0.0,0.0,1747524790.6097722,0.0, 2025-05-17 16:33:10.609
198.0,-78664.81884298549,92086.236725597,-492784.43965726375,-27082.44646578389,-560232.6166907093,-586674.3727534262,-586900.1253724248,-587031.4642228442,0.19,0.092,0.96,192.0,5.0,240.0,2.0,224.0,30.0,0.0,0.0,0.0,0.0,1747524790.609821,0.0, 2025-05-17 16:33:10.609
199.0,-78638.62259848388,92109.21431889704,-492712.0200052286,-26958.61780150149,-560266.23371437,-586690.9130443231,-586916.9338842552,-587048.2727346746,0.19,0.092,0.96,192.0,0.0,0.0,0.0,0.0,0.0,0.0,0.0,0.0,0.0,1747524790.6098745,0.0, 2025-05-17 16:33:10.609
200.0,-78607.9560050912,92135.14234246522,-492637.7228066591,-26830.139974372385,-560297.0791217183,-586705.0393468189,-586931.4178146622,-587063.1142929929,0.19,0.092,0.96,192.0,0.0,0.0,0.0,0.0,0.0,0.0,0.0,0.0,0.0,1747524790.609924,0.0, 2025-05-17 16:33:10.609
201.0,-78611.71109815969,92128.43681912862,-492600.7977248189,-26735.72620579317,-560362.6144364614,-586727.1228703407,-586954.4848149401,-587086.538921182,0.19,0.092,0.96,192.0,0.0,0.0,0.0,0.0,0.0,0.0,0.0,0.0,0.0,1747524790.6099727,0.0, 2025-05-17 16:33:10.609
202.0,-78625.56917972198,92116.0986561893,-492577.1942826741,-26648.37558846183,-560437.269262942,-586760.8293009794,-586989.2641293126,-587120.9606076432,0.19,0.092,0.96,192.0,0.0,0.0,0.0,0.0,0.0,0.0,0.0,0.0,0.0,1747524790.610022,0.0, 2025-05-17 16:33:10.610
203.0,-78610.9064353593,92135.58937735432,-492526.1428983382,-26530.805412626916,-560481.4363099857,-586781.3034989004,-587010.8112109675,-587142.2394683647,0.19,0.092,0.96,192.0,0.0,0.0,0.0,0.0,0.0,0.0,0.0,0.0,0.0,1747524790.6102264,0.0, 2025-05-17 16:33:10.610
204.0,-78584.53137690203,92166.61359865828,-492466.32963017584,-26404.920387854625,-560518.0037639146,-586796.2344641965,-587026.1892111527,-587157.8856894834,0.19,0.092,0.96,192.0,0.0,0.0,0.0,0.0,0.0,0.0,0.0,0.0,0.0,1747524790.6103275,0.0, 2025-05-17 16:33:10.610
205.0,-78593.82970259544,92160.98095905554,-492442.99440896447,-26315.9604449225,-560711.9274988088,-586821.8048598535,-587047.2892579186,-587179.1645502049,0.19,0.092,0.96,192.0,0.0,0.0,0.0,0.0,0.0,0.0,0.0,0.0,0.0,1747524790.6104107,0.0, 2025-05-17 16:33:10.610
206.0,-78632.36411003639,92130.76140055196,-492443.2626298979,-26254.001409292392,-560816.3548489041,-586858.8193486714,-587077.4194094443,-587209.2947017306,0.19,0.092,0.96,192.0,0.0,0.0,0.0,0.0,0.0,0.0,0.0,0.0,0.0,1747524790.6104908,0.0, 2025-05-17 16:33:10.610
207.0,-78659.09679640493,92120.8372260138,-492417.4240133076,-26170.31647805172,-560624.308660544,-586887.0719536629,-587109.60592146,-587241.6600277019,0.19,0.092,0.96,192.0,0.0,0.0,0.0,0.0,0.0,0.0,0.0,0.0,0.0,1747524790.6106172,0.0, 2025-05-17 16:33:10.610
208.0,-78670.89851747734,92135.9470052656,-492362.9751638145,-26059.809453464684,-560372.8962389107,-586886.535511796,-587125.4309565343,-587257.3956557985,0.216,0.1,0.948,192.0,6.0,192.0,3.0,32.0,29.0,160.0,0.0,0.0,0.0,1747524790.6107068,0.0, 2025-05-17 16:33:10.610
209.0,-78714.9761575432,92130.40377264068,-492329.71576806495,-25968.882557020494,-560008.652211267,-586914.2516749206,-587149.3026196125,-587280.8202839876,0.216,0.1,0.948,192.0,0.0,0.0,0.0,0.0,0.0,0.0,0.0,0.0,0.0,1747524790.610875,0.0, 2025-05-17 16:33:10.610
210.0,-78771.66018148187,92118.95967947957,-492305.3076631198,-25884.83999786854,-559895.2841633897,-586953.2331172506,-587177.5552246041,-587309.2517029347,0.216,0.1,0.948,192.0,0.0,0.0,0.0,0.0,0.0,0.0,0.0,0.0,0.0,1747524790.610963,0.0, 2025-05-17 16:33:10.610
211.0,-78803.93610047533,92131.92369126364,-492255.7761974068,-25772.455426747256,-559948.8389431046,-586970.1310360589,-587196.4200969244,-587328.2953892107,0.216,0.1,0.948,192.0,0.0,0.0,0.0,0.0,0.0,0.0,0.0,0.0,0.0,1747524790.6110487,0.0, 2025-05-17 16:33:10.611
212.0,-78805.27720514264,92174.21319177307,-492177.7239057689,-25631.460622723174,-559973.8728968946,-586976.4789314842,-587204.0196900392,-587335.8055753476,0.216,0.1,0.948,192.0,0.0,0.0,0.0,0.0,0.0,0.0,0.0,0.0,0.0,1747524790.6111329,0.0, 2025-05-17 16:33:10.611
213.0,-78829.77471706567,92193.43569200466,-492122.5598004532,-25513.44341199916,-560022.3314788737,-586993.4662572702,-587222.9739693373,-587355.0280755792,0.216,0.1,0.948,192.0,0.0,0.0,0.0,0.0,0.0,0.0,0.0,0.0,0.0,1747524790.611214,0.0, 2025-05-17 16:33:10.611
214.0,-78883.06127584711,92181.18693604314,-492097.4364396854,-25427.43389933513,-560101.4566542455,-587016.3544435924,-587249.7960626837,-587381.8501689256,0.216,0.1,0.948,192.0,0.0,0.0,0.0,0.0,0.0,0.0,0.0,0.0,0.0,1747524790.6112957,0.0, 2025-05-17 16:33:10.611
215.0,-78919.44991582035,92185.2102500451,-492055.6833810429,-25327.387491153186,-560164.1309456981,-587034.6828740458,-587270.8067024716,-587402.5925877801,0.216,0.1,0.948,192.0,0.0,0.0,0.0,0.0,0.0,0.0,0.0,0.0,0.0,1747524790.6113808,0.0, 2025-05-17 16:33:10.611
216.0,-78918.64525301996,92224.72813424208,-491976.64761264896,-25193.902873266088,-560189.7907483329,-587042.3718741384,-587278.0486676751,-587409.4769250724,0.216,0.1,0.948,192.0,0.0,0.0,0.0,0.0,0.0,0.0,0.0,0.0,0.0,1747524790.6114657,0.0, 2025-05-17 16:33:10.611
217.0,-78926.96010195735,92251.99726247755,-491910.6652630169,-25078.1208369876,-560230.1132953302,-587065.081246505,-587298.7910865296,-587430.129936949,0.216,0.1,0.948,192.0,0.0,0.0,0.0,0.0,0.0,0.0,0.0,0.0,0.0,1747524790.6115513,0.0, 2025-05-17 16:33:10.611
218.0,-78967.10383499907,92247.5269135865,-491877.8529021565,-24998.99566161581,-560307.8973660347,-587091.9927468292,-587322.2157147188,-587453.643972116,0.238,0.098,0.948,192.0,7.0,112.0,3.0,16.0,29.0,160.0,0.0,0.0,0.0,1747524790.6117892,0.0, 2025-05-17 16:33:10.611
219.0,-78999.02212608125,92249.31505314291,-491838.8714598264,-24917.098869931564,-560382.9992274046,-587124.4474797783,-587352.9717150893,-587484.8470073757,0.238,0.098,0.948,192.0,0.0,0.0,0.0,0.0,0.0,0.0,0.0,0.0,0.0,1747524790.6118789,0.0, 2025-05-17 16:33:10.611
220.0,-78996.87635861355,92281.76978609205,-491767.4352845473,-24805.697775566317,-560429.1332279603,-587144.9216776993,-587372.4624362544,-587504.6059494741,0.238,0.098,0.948,192.0,0.0,0.0,0.0,0.0,0.0,0.0,0.0,0.0,0.0,1747524790.6119604,0.0, 2025-05-17 16:33:10.611
221.0,-78996.33991674661,92310.38001899482,-491702.07878376,-24702.61153013844,-560482.5986006974,-587154.1305964149,-587380.8666921696,-587512.8313914337,0.238,0.098,0.948,192.0,0.0,0.0,0.0,0.0,0.0,0.0,0.0,0.0,0.0,1747524790.612046,0.0, 2025-05-17 16:33:10.612
222.0,-79023.96667289337,92309.21772828314,-491667.3888763653,-24632.87408743788,-560571.826764563,-587179.9692130053,-587405.632425026,-587537.150089401,0.238,0.098,0.948,192.0,0.0,0.0,0.0,0.0,0.0,0.0,0.0,0.0,0.0,1747524790.6121554,0.0, 2025-05-17 16:33:10.612
223.0,-79048.37477783857,92308.94950734968,-491631.1790503477,-24563.941307537712,-560663.290102874,-587207.6853761298,-587432.8121462837,-587564.3298106587,0.238,0.098,0.948,192.0,0.0,0.0,0.0,0.0,0.0,0.0,0.0,0.0,0.0,1747524790.6122377,0.0, 2025-05-17 16:33:10.612
224.0,-79039.25526610081,92340.06313563148,-491556.0771889779,-24465.50422495654,-560723.2821849921,-587228.070167073,-587453.3757511826,-587585.1616364911,0.238,0.098,0.948,192.0,0.0,0.0,0.0,0.0,0.0,0.0,0.0,0.0,0.0,1747524790.6123724,0.0, 2025-05-17 16:33:10.612
225.0,-79023.16201009299,92377.61406631638,-491469.88886235823,-24360.62983997224,-560778.1780693744,-587242.1964695689,-587467.5020536783,-587599.7349738759,0.238,0.098,0.948,192.0,0.0,0.0,0.0,0.0,0.0,0.0,0.0,0.0,0.0,1747524790.612455,0.0, 2025-05-17 16:33:10.612
226.0,-79042.38451032454,92382.53145009656,-491409.8967802402,-24287.316118158837,-560866.4227564839,-587268.0350861591,-587493.8771121356,-587626.199439311,0.238,0.098,0.948,192.0,0.0,0.0,0.0,0.0,0.0,0.0,0.0,0.0,0.0,1747524790.612541,0.0, 2025-05-17 16:33:10.612
227.0,-79080.02484798728,92378.1505081833,-491350.8881748782,-24221.870210393696,-560962.9822925308,-587294.6783655499,-587522.3085310827,-587654.0944163912,0.238,0.098,0.948,192.0,0.0,0.0,0.0,0.0,0.0,0.0,0.0,0.0,0.0,1747524790.6126244,0.0, 2025-05-17 16:33:10.612
228.0,-79100.23082497487,92402.20098521722,-491255.7591504764,-24125.31067434677,-561030.2163398524,-587306.0330517332,-587536.2560196229,-587668.1313119092,0.226,0.09,0.948,192.0,7.0,16.0,2.0,208.0,29.0,160.0,0.0,0.0,0.0,1747524790.6127052,0.0, 2025-05-17 16:33:10.612
229.0,-79112.92661582549,92447.97735786167,-491133.45040481695,-24004.968882199395,-561133.1237713246,-587324.4508891643,-587554.0480082093,-587685.74448654,0.226,0.09,0.948,192.0,0.0,0.0,0.0,0.0,0.0,0.0,0.0,0.0,0.0,1747524790.6127925,0.0, 2025-05-17 16:33:10.612
230.0,-79178.90896545757,92453.16296257533,-491044.7586828183,-23920.83691606962,-561340.011518003,-587360.5713082041,-587580.5124736443,-587712.2983589529,0.226,0.09,0.948,192.0,0.0,0.0,0.0,0.0,0.0,0.0,0.0,0.0,0.0,1747524790.612872,0.0, 2025-05-17 16:33:10.612
231.0,-79280.92232715158,92432.77817163208,-490979.2233680753,-23860.84483395157,-561229.8621213272,-587393.9201109315,-587613.2354275269,-587745.2895337689,0.226,0.09,0.948,192.0,0.0,0.0,0.0,0.0,0.0,0.0,0.0,0.0,0.0,1747524790.612951,0.0, 2025-05-17 16:33:10.612
232.0,-79359.7792815899,92442.88116012588,-490886.0612971856,-23766.341658394536,-561007.417560508,-587403.3972505805,-587633.5308114924,-587765.1378828452,0.226,0.09,0.948,192.0,0.0,0.0,0.0,0.0,0.0,0.0,0.0,0.0,0.0,1747524790.6130311,0.0, 2025-05-17 16:33:10.613
233.0,-79418.07263112934,92477.9286954318,-490770.1898539293,-23637.506203354147,-560637.1832653503,-587405.8112389817,-587642.739730208,-587774.3468015607,0.226,0.09,0.948,192.0,0.0,0.0,0.0,0.0,0.0,0.0,0.0,0.0,0.0,1747524790.613197,0.0, 2025-05-17 16:33:10.613
234.0,-79500.77408561399,92493.0384746836,-490687.84602735593,-23520.6512833418,-560365.1178318403,-587434.4214718845,-587658.5647652823,-587790.1718366351,0.226,0.09,0.948,192.0,0.0,0.0,0.0,0.0,0.0,0.0,0.0,0.0,0.0,1747524790.6132777,0.0, 2025-05-17 16:33:10.613
235.0,-79598.31709841694,92496.25712588515,-490635.9005732418,-23409.697223865656,-560396.231460122,-587448.6371813581,-587673.0486956893,-587804.8345809978,0.226,0.09,0.948,192.0,0.0,0.0,0.0,0.0,0.0,0.0,0.0,0.0,0.0,1747524790.6133718,0.0, 2025-05-17 16:33:10.613
236.0,-79677.88930867784,92515.12199820545,-490582.9716423717,-23276.391419934203,-560423.6794023132,-587469.4690071904,-587694.2381494329,-587825.9346277636,0.226,0.09,0.948,192.0,0.0,0.0,0.0,0.0,0.0,0.0,0.0,0.0,0.0,1747524790.613479,0.0, 2025-05-17 16:33:10.613
237.0,-79731.80171630403,92560.0937080495,-490518.3303974069,-23113.58131332175,-560418.4937975996,-587472.8664723476,-587697.2779866789,-587828.8850580318,0.226,0.09,0.948,192.0,0.0,0.0,0.0,0.0,0.0,0.0,0.0,0.0,0.0,1747524790.6135569,0.0, 2025-05-17 16:33:10.613
238.0,-79799.21457758124,92587.36283628498,-490484.802780724,-22968.29497436225,-560427.255681426,-587483.9529375974,-587707.9174170396,-587840.0609302594,0.208,0.098,0.952,192.0,6.0,128.0,3.0,16.0,29.0,192.0,0.0,0.0,0.0,1747524790.6136346,0.0, 2025-05-17 16:33:10.613
239.0,-79892.01902055967,92585.39588277292,-490491.32949010486,-22851.52946132773,-560459.4421934417,-587510.7750309438,-587735.0077313194,-587867.0618375614,0.208,0.098,0.952,192.0,0.0,0.0,0.0,0.0,0.0,0.0,0.0,0.0,0.0,1747524790.6137605,0.0, 2025-05-17 16:33:10.613
240.0,-79973.20055642135,92594.42598753286,-490494.8163622399,-22725.823250511083,-560479.5587634515,-587525.5271822843,-587750.206917549,-587881.9928028575,0.208,0.098,0.952,192.0,0.0,0.0,0.0,0.0,0.0,0.0,0.0,0.0,0.0,1747524790.613839,0.0, 2025-05-17 16:33:10.613
241.0,-80020.85447560006,92636.2684531532,-490472.9116526737,-22572.311469592038,-560468.3828912238,-587528.209391619,-587752.1738710611,-587884.0491633475,0.208,0.098,0.952,192.0,0.0,0.0,0.0,0.0,0.0,0.0,0.0,0.0,0.0,1747524791.0858848,0.0, 2025-05-17 16:33:11.085
242.0,-80075.30332509319,92666.6668256124,-490468.4413037826,-22433.10480512438,-560469.9922168246,-587539.9217057135,-587763.260336311,-587895.4038495307,0.208,0.098,0.952,192.0,0.0,0.0,0.0,0.0,0.0,0.0,0.0,0.0,0.0,1747524791.086121,0.0, 2025-05-17 16:33:11.086
243.0,-80155.05434930974,92664.34224418906,-490499.10789717536,-22330.912629474715,-560505.307973064,-587556.8196245218,-587781.3205458309,-587913.2852450949,0.208,0.098,0.952,192.0,0.0,0.0,0.0,0.0,0.0,0.0,0.0,0.0,0.0,1747524791.0863185,0.0, 2025-05-17 16:33:11.086
244.0,-80223.9871292099,92665.59394187856,-490530.4897463906,-22229.703930581087,-560541.6072060594,-587577.2938224428,-587802.5994065523,-587934.6535127943,0.208,0.098,0.952,192.0,0.0,0.0,0.0,0.0,0.0,0.0,0.0,0.0,0.0,1747524791.0864353,0.0, 2025-05-17 16:33:11.086
245.0,-80252.50795513488,92697.42282598293,-490531.3838161688,-22103.640091853154,-560549.4750201077,-587588.8273225818,-587813.7752787799,-587945.9187919997,0.208,0.098,0.952,192.0,0.0,0.0,0.0,0.0,0.0,0.0,0.0,0.0,0.0,1747524791.0865977,0.0, 2025-05-17 16:33:11.086
246.0,-80269.94231581001,92729.69874497638,-490534.15543248126,-21982.404229927568,-560559.6674155793,-587590.704869116,-587816.0998602033,-587947.8857455117,0.208,0.098,0.952,192.0,0.0,0.0,0.0,0.0,0.0,0.0,0.0,0.0,0.0,1747524791.0866928,0.0, 2025-05-17 16:33:11.086
247.0,-80314.37758378717,92728.9834891538,-490568.30889800895,-21898.18285681997,-560609.0200673366,-587601.5231134323,-587829.4214998987,-587961.3861991628,0.208,0.098,0.952,192.0,0.0,0.0,0.0,0.0,0.0,0.0,0.0,0.0,0.0,1747524791.0867827,0.0, 2025-05-17 16:33:11.086
248.0,-80358.18700291956,92727.10594261956,-490601.6577007363,-21822.097518694107,-560664.8994284748,-587618.4210322405,-587849.0016280415,-587981.3239552169,0.192,0.094,0.966,192.0,6.0,0.0,2.0,240.0,30.0,48.0,0.0,0.0,0.0,1747524791.08711,0.0, 2025-05-17 16:33:11.087
249.0,-80366.68066581257,92755.98439645582,-490600.2271890912,-21720.888819800475,-560695.5660218676,-587628.7922416679,-587861.1609770252,-587992.9468623337,0.192,0.094,0.966,192.0,0.0,0.0,0.0,0.0,0.0,0.0,0.0,0.0,0.0,1747524791.0872035,0.0, 2025-05-17 16:33:11.087
250.0,-80366.50185185694,92789.15438522748,-490587.8890261518,-21620.12715579595,-560727.6631269053,-587632.6367417141,-587866.7936166279,-587999.1159438033,0.192,0.094,0.966,192.0,0.0,0.0,0.0,0.0,0.0,0.0,0.0,0.0,0.0,1747524791.087289,0.0, 2025-05-17 16:33:11.087
251.0,-80393.86038707024,92791.83659456212,-490600.0483751355,-21552.177852651817,-560794.36073236,-587652.4850907904,-587887.4466285047,-588019.8583626578,0.192,0.094,0.966,192.0,0.0,0.0,0.0,0.0,0.0,0.0,0.0,0.0,0.0,1747524791.087422,0.0, 2025-05-17 16:33:11.087
252.0,-80423.36468975124,92790.94252478392,-490609.1678868733,-21491.11288679992,-560869.1049658186,-587670.4558933325,-587902.2881868229,-588033.8952581758,0.192,0.094,0.966,192.0,0.0,0.0,0.0,0.0,0.0,0.0,0.0,0.0,0.0,1747524791.0875108,0.0, 2025-05-17 16:33:11.087
253.0,-80425.7786781524,92813.74130412831,-490588.2466540631,-21407.60676951489,-560925.0737339347,-587684.761009784,-587914.0005009176,-588045.9652001817,0.192,0.094,0.966,192.0,0.0,0.0,0.0,0.0,0.0,0.0,0.0,0.0,0.0,1747524791.0876057,0.0, 2025-05-17 16:33:11.087
254.0,-80409.59601516677,92848.78883943426,-490545.2418977311,-21314.9811404921,-560970.8501065791,-587698.708498324,-587926.785698746,-588058.9292119658,0.192,0.094,0.966,192.0,0.0,0.0,0.0,0.0,0.0,0.0,0.0,0.0,0.0,1747524791.0877528,0.0, 2025-05-17 16:33:11.087
255.0,-80415.31806174733,92856.74606046034,-490519.85031602986,-21250.78693041646,-561046.3990028381,-587721.8649055797,-587948.6904083121,-588080.5657005985,0.192,0.094,0.966,192.0,0.0,0.0,0.0,0.0,0.0,0.0,0.0,0.0,0.0,1747524791.0878038,0.0, 2025-05-17 16:33:11.087
0.0,-80431.5901317108,92849.23587432336,-490504.3829088668,-21204.29530194942,-561141.0809923507,-587748.8658128817,-587974.4396179247,-588106.7619451002,0.192,0.094,0.966,192.0,0.0,0.0,0.0,0.0,0.0,0.0,0.0,0.0,0.0,1747524791.0878532,0.0, 2025-05-17 16:33:11.087
1.0,-80414.96043383604,92867.65371175454,-490451.9904198636,-21130.355731291264,-561209.1197024727,-587767.8200921798,-587992.3210134889,-588125.0903755535,0.192,0.094,0.966,192.0,0.0,0.0,0.0,0.0,0.0,0.0,0.0,0.0,0.0,1747524791.087902,0.0, 2025-05-17 16:33:11.087
2.0,-80376.42602639509,92907.17159595151,-490368.752523512,-21033.08093942177,-561257.0418425848,-587779.4429992966,-588003.8545136278,-588136.355654759,0.178,0.112,0.982,192.0,5.0,144.0,3.0,128.0,30.0,176.0,0.0,0.0,0.0,1747524791.0879512,0.0, 2025-05-17 16:33:11.087
3.0,-80373.11796821571,92923.62247987062,-490299.5515226784,-20957.353229207187,-561327.494541108,-587803.0464414414,-588028.0838046174,-588160.4061317928,0.178,0.112,0.982,192.0,0.0,0.0,0.0,0.0,0.0,0.0,0.0,0.0,0.0,1747524791.0880044,0.0, 2025-05-17 16:33:11.088
4.0,-80412.72525939051,92916.91695653404,-490242.0628359393,-20899.32810060121,-561416.9015189292,-587822.4477556286,-588047.9321536937,-588179.8968529579,0.178,0.112,0.982,192.0,0.0,0.0,0.0,0.0,0.0,0.0,0.0,0.0,0.0,1747524791.0880537,0.0, 2025-05-17 16:33:11.088
5.0,-80452.51136452095,92928.5398636508,-490157.3050209648,-20817.69952985043,-561483.509717406,-587845.6935698622,-588072.1614446833,-588203.857923014,0.178,0.112,0.982,192.0,0.0,0.0,0.0,0.0,0.0,0.0,0.0,0.0,0.0,1747524791.088103,0.0, 2025-05-17 16:33:11.088
6.0,-80472.18089964162,92972.70691069448,-490035.0856822832,-20699.14587725948,-561513.2822410205,-587856.243593245,-588083.4267238887,-588215.0337952416,0.178,0.112,0.982,192.0,0.0,0.0,0.0,0.0,0.0,0.0,0.0,0.0,0.0,1747524791.0881524,0.0, 2025-05-17 16:33:11.088
7.0,-80515.72209784057,93001.0489226638,-489929.5854484541,-20591.589282940546,-561555.1247066408,-587877.1648260552,-588104.794991588,-588236.5808768965,0.178,0.112,0.982,192.0,0.0,0.0,0.0,0.0,0.0,0.0,0.0,0.0,0.0,1747524791.088276,0.0, 2025-05-17 16:33:11.088
8.0,-80591.53921503297,92999.08196915174,-489858.4174941084,-20504.95392143177,-561676.3605685665,-587903.3610705568,-588130.6336081784,-588262.0618655756,0.178,0.112,0.982,192.0,0.0,0.0,0.0,0.0,0.0,0.0,0.0,0.0,0.0,1747524791.0883255,0.0, 2025-05-17 16:33:11.088
9.0,-80667.80336711448,92995.86331795018,-489792.7927723876,-20412.775327298084,-561855.4427451424,-587930.272570881,-588150.5713642325,-588282.2678425632,0.178,0.112,0.982,192.0,0.0,0.0,0.0,0.0,0.0,0.0,0.0,0.0,0.0,1747524791.0883763,0.0, 2025-05-17 16:33:11.088
10.0,-80727.16960038777,93009.453178579,-489718.2273528847,-20297.4403259087,-561674.5724290101,-587951.1043967133,-588174.800655222,-588306.7653544862,0.178,0.112,0.982,192.0,0.0,0.0,0.0,0.0,0.0,0.0,0.0,0.0,0.0,1747524791.0884273,0.0, 2025-05-17 16:33:11.088
11.0,-80790.91677557431,93018.21506240548,-489655.4636544542,-20183.535836164458,-561389.6323906938,-587946.0976059553,-588186.0659344275,-588317.7624127582,0.178,0.112,0.982,192.0,0.0,0.0,0.0,0.0,0.0,0.0,0.0,0.0,0.0,1747524791.0884993,0.0, 2025-05-17 16:33:11.088
12.0,-80876.3898463714,93004.08875990972,-489621.57840986,-20089.569102474343,-561004.5565372177,-587971.75740859,-588202.7850392801,-588334.4815176107,0.172,0.112,0.982,192.0,5.0,96.0,3.0,128.0,30.0,176.0,0.0,0.0,0.0,1747524791.0885496,0.0, 2025-05-17 16:33:11.088
13.0,-80948.54127747314,93003.90994595407,-489578.6630605058,-19978.883263931664,-560903.0796173906,-588002.6028159384,-588224.7791558241,-588356.6544481105,0.172,0.112,0.982,192.0,0.0,0.0,0.0,0.0,0.0,0.0,0.0,0.0,0.0,1747524791.088627,0.0, 2025-05-17 16:33:11.088
14.0,-80987.5227198032,93036.99052774794,-489505.4387456702,-19836.010913373342,-560903.5266522798,-588018.4278510127,-588239.6207141425,-588371.5854134066,0.172,0.112,0.982,192.0,0.0,0.0,0.0,0.0,0.0,0.0,0.0,0.0,0.0,1747524791.0886776,0.0, 2025-05-17 16:33:11.088
15.0,-81024.80542955463,93070.24992349744,-489433.19790759066,-19696.98306286133,-560902.900803435,-588030.0507581295,-588251.0648073036,-588383.2977275011,0.172,0.112,0.982,192.0,0.0,0.0,0.0,0.0,0.0,0.0,0.0,0.0,0.0,1747524791.0887277,0.0, 2025-05-17 16:33:11.088
16.0,-81089.80430243067,93075.88256310015,-489385.36517445627,-19584.866712673516,-560930.0805246927,-588054.1906421413,-588275.4729122488,-588407.2587975572,0.172,0.112,0.982,192.0,0.0,0.0,0.0,0.0,0.0,0.0,0.0,0.0,0.0,1747524791.0887773,0.0, 2025-05-17 16:33:11.088
17.0,-81160.97225677637,93075.61434216672,-489340.8404995013,-19479.455885822284,-560967.0056065328,-588069.8368632599,-588292.0132031457,-588423.5308675207,0.172,0.112,0.982,192.0,0.0,0.0,0.0,0.0,0.0,0.0,0.0,0.0,0.0,1747524791.0888264,0.0, 2025-05-17 16:33:11.088
18.0,-81205.31811777569,93101.63177271267,-489264.75516137545,-19348.02762842508,-560979.7908043612,-588080.4762936207,-588302.7420404842,-588434.4385188149,0.172,0.112,0.982,192.0,0.0,0.0,0.0,0.0,0.0,0.0,0.0,0.0,0.0,1747524791.0888765,0.0, 2025-05-17 16:33:11.088
19.0,-81234.64360650106,93143.2954243774,-489170.43079977407,-19204.261208088545,-560979.1649555165,-588084.320793667,-588305.871284708,-588438.3724258391,0.172,0.112,0.982,192.0,0.0,0.0,0.0,0.0,0.0,0.0,0.0,0.0,0.0,1747524791.0889263,0.0, 2025-05-17 16:33:11.088
20.0,-81294.81450257475,93153.75604078246,-489104.18022920855,-19094.558846301898,-561013.2290140664,-588099.341165941,-588321.9645407158,-588454.0186469577,0.172,0.112,0.982,192.0,0.0,0.0,0.0,0.0,0.0,0.0,0.0,0.0,0.0,1747524791.089,0.0, 2025-05-17 16:33:11.089
21.0,-81366.25067785391,93150.71620353656,-489047.6750192255,-18999.340414922288,-561063.3863286241,-588123.9280848418,-588348.0713782395,-588479.9466705259,0.172,0.112,0.982,192.0,0.0,0.0,0.0,0.0,0.0,0.0,0.0,0.0,0.0,1747524791.0890844,0.0, 2025-05-17 16:33:11.089
22.0,-81411.22238769798,93171.1904014576,-488960.14558793855,-18879.803285575304,-561089.7613870814,-588135.7298059142,-588360.1413202455,-588492.1954264874,0.18,0.112,0.98,192.0,5.0,160.0,3.0,128.0,30.0,160.0,0.0,0.0,0.0,1747524791.0892477,0.0, 2025-05-17 16:33:11.089
23.0,-81427.13682975016,93218.3972857472,-488842.2177841924,-18732.46058612592,-561089.2249452145,-588143.329399029,-588367.2938784711,-588499.2585777353,0.18,0.112,0.98,192.0,0.0,0.0,0.0,0.0,0.0,0.0,0.0,0.0,0.0,1747524791.0893047,0.0, 2025-05-17 16:33:11.089
24.0,-81476.1318535962,93235.02698362197,-488753.7048761493,-18616.94677078089,-561118.7292478954,-588159.6908759703,-588384.370611235,-588516.3353104992,0.18,0.112,0.98,192.0,0.0,0.0,0.0,0.0,0.0,0.0,0.0,0.0,0.0,1747524791.0893545,0.0, 2025-05-17 16:33:11.089
25.0,-81543.54471487341,93232.43418126514,-488681.46403806977,-18516.98976957676,-561166.4725740519,-588181.4167715808,-588407.2587975572,-588539.2234968214,0.18,0.112,0.98,192.0,0.0,0.0,0.0,0.0,0.0,0.0,0.0,0.0,0.0,1747524791.0894043,0.0, 2025-05-17 16:33:11.089
26.0,-81586.99650609453,93249.68972798465,-488587.8549322909,-18395.12805880643,-561191.6853417975,-588205.5566555925,-588431.2198676133,-588563.5421947888,0.18,0.112,0.98,192.0,0.0,0.0,0.0,0.0,0.0,0.0,0.0,0.0,0.0,1747524791.0894728,0.0, 2025-05-17 16:33:11.089
27.0,-81603.62620396927,93290.10168195984,-488469.3012797,-18249.12646402436,-561192.7582255314,-588208.864713772,-588434.3491118371,-588566.3138111013,0.18,0.112,0.98,192.0,0.0,0.0,0.0,0.0,0.0,0.0,0.0,0.0,0.0,1747524791.0895233,0.0, 2025-05-17 16:33:11.089
28.0,-81641.71357652111,93308.0724845019,-488373.0099645865,-18124.224916008105,-561216.0040397649,-588221.6499116004,-588448.2071933994,-588580.1718926635,0.18,0.112,0.98,192.0,0.0,0.0,0.0,0.0,0.0,0.0,0.0,0.0,0.0,1747524791.089606,0.0, 2025-05-17 16:33:11.089
29.0,-81708.32177499792,93300.65170534274,-488304.4348125976,-18025.07257760437,-561263.5685519659,-588258.9326213518,-588486.2051589733,-588618.3486721931,0.18,0.112,0.98,192.0,0.0,0.0,0.0,0.0,0.0,0.0,0.0,0.0,0.0,1747524791.0896573,0.0, 2025-05-17 16:33:11.089
30.0,-81755.26043835407,93311.55935663694,-488218.246485978,-17906.96595990252,-561292.0893778908,-588279.7644471842,-588507.4840196948,-588639.5381259368,0.18,0.112,0.98,192.0,0.0,0.0,0.0,0.0,0.0,0.0,0.0,0.0,0.0,1747524791.0897071,0.0, 2025-05-17 16:33:11.089
31.0,-81770.19140365021,93349.02088034402,-488105.0572520563,-17760.964365120457,-561291.9999709129,-588288.883958922,-588516.1564965436,-588648.3894167411,0.18,0.112,0.98,192.0,0.0,0.0,0.0,0.0,0.0,0.0,0.0,0.0,0.0,1747524791.0897572,0.0, 2025-05-17 16:33:11.089
32.0,-81798.3546016639,93369.9421131542,-488006.8883904086,-17630.96661936839,-561306.5733082978,-588297.2882148371,-588524.6501594365,-588656.9724866119,0.198,0.108,0.976,192.0,6.0,48.0,3.0,96.0,30.0,128.0,0.0,0.0,0.0,1747524791.0898082,0.0, 2025-05-17 16:33:11.089
33.0,-81849.13776506636,93367.52812475302,-487932.2335639279,-17523.32061807163,-561343.945425027,-588319.9081802259,-588548.3430085592,-588680.933556668,0.198,0.108,0.976,192.0,0.0,0.0,0.0,0.0,0.0,0.0,0.0,0.0,0.0,1747524791.0898635,0.0, 2025-05-17 16:33:11.089
34.0,-81898.66923077933,93367.79634568648,-487859.8139118927,-17416.568686553084,-561380.512878956,-588345.1209479715,-588574.7180670165,-588706.5933593027,0.198,0.108,0.976,192.0,0.0,0.0,0.0,0.0,0.0,0.0,0.0,0.0,0.0,1747524791.0899155,0.0, 2025-05-17 16:33:11.089
35.0,-81911.45442860776,93402.03921819202,-487750.7373989508,-17275.931510440292,-561381.9433906011,-588361.3036109571,-588589.6490323126,-588721.4349176211,0.198,0.108,0.976,192.0,0.0,0.0,0.0,0.0,0.0,0.0,0.0,0.0,0.0,1747524791.0899668,0.0, 2025-05-17 16:33:11.089
36.0,-81927.90531252687,93428.77190456056,-487647.6511535229,-17143.519776287052,-561389.4535767381,-588374.1782157634,-588602.0766022297,-588733.951894516,0.198,0.108,0.976,192.0,0.0,0.0,0.0,0.0,0.0,0.0,0.0,0.0,0.0,1747524791.0900173,0.0, 2025-05-17 16:33:11.090
37.0,-81979.67195268536,93419.83120677844,-487583.9039783364,-17048.837786774373,-561434.7829144935,-588401.2685300432,-588630.0609862878,-588762.0256855519,0.198,0.108,0.976,192.0,0.0,0.0,0.0,0.0,0.0,0.0,0.0,0.0,0.0,1747524791.090088,0.0, 2025-05-17 16:33:11.090
38.0,-82029.29282537613,93411.60576481889,-487517.8322217265,-16951.384180949233,-561480.5592871379,-588417.7194139623,-588648.925858608,-588781.2481857834,0.198,0.108,0.976,192.0,0.0,0.0,0.0,0.0,0.0,0.0,0.0,0.0,0.0,1747524791.0901375,0.0, 2025-05-17 16:33:11.090
39.0,-82041.98861622675,93439.32192794349,-487415.28241816553,-16820.313551463314,-561490.9304965652,-588432.1139373916,-588663.0521611038,-588795.3744882792,0.198,0.108,0.976,192.0,0.0,0.0,0.0,0.0,0.0,0.0,0.0,0.0,0.0,1747524791.0901885,0.0, 2025-05-17 16:33:11.090
40.0,-82052.09160472055,93468.20038177972,-487313.35846344935,-16692.282759223315,-561503.9839153271,-588444.0944724196,-588675.6585449766,-588807.6232442408,0.198,0.108,0.976,192.0,0.0,0.0,0.0,0.0,0.0,0.0,0.0,0.0,0.0,1747524791.0902383,0.0, 2025-05-17 16:33:11.090
41.0,-82085.26159349222,93471.77666089256,-487236.6472764787,-16586.33549050516,-561542.6971367237,-588462.9593447399,-588695.953928942,-588828.008035184,0.198,0.108,0.976,192.0,0.0,0.0,0.0,0.0,0.0,0.0,0.0,0.0,0.0,1747524791.0903094,0.0, 2025-05-17 16:33:11.090
42.0,-82125.49473351178,93466.4122422233,-487168.6979733346,-16491.206466103373,-561593.1226722149,-588482.9865077719,-588718.1268594416,-588850.5385935949,0.218,0.098,0.962,192.0,6.0,208.0,3.0,16.0,30.0,16.0,0.0,0.0,0.0,1747524791.0903614,0.0, 2025-05-17 16:33:11.090
43.0,-82132.7366987153,93490.0156843681,-487071.5125884429,-16369.881197199966,-561616.1002655149,-588499.6162056465,-588734.7565573164,-588867.1682914697,0.218,0.098,0.962,192.0,0.0,0.0,0.0,0.0,0.0,0.0,0.0,0.0,0.0,1747524791.090448,0.0, 2025-05-17 16:33:11.090
44.0,-82129.7862684472,93521.48694056115,-486967.1746453255,-16239.97285842572,-561633.8028471235,-588515.0836128097,-588750.4027784351,-588882.5462916549,0.218,0.098,0.962,192.0,0.0,0.0,0.0,0.0,0.0,0.0,0.0,0.0,0.0,1747524791.0904992,0.0, 2025-05-17 16:33:11.090
45.0,-82159.11175717256,93520.05642891604,-486896.6325398246,-16145.91671775779,-561688.072882661,-588544.8561364241,-588780.1753020496,-588912.2294082915,0.218,0.098,0.962,192.0,0.0,0.0,0.0,0.0,0.0,0.0,0.0,0.0,0.0,1747524791.090552,0.0, 2025-05-17 16:33:11.090
46.0,-82195.41099016798,93509.32759157749,-486834.5840972167,-16065.18221678522,-561754.6810811379,-588567.5655087907,-588799.5766162368,-588931.8989434122,0.218,0.098,0.962,192.0,0.0,0.0,0.0,0.0,0.0,0.0,0.0,0.0,0.0,1747524791.090603,0.0, 2025-05-17 16:33:11.090
47.0,-82202.83176932714,93523.99033594017,-486749.2004333974,-15962.453599268629,-561798.0434653811,-588587.1456369335,-588817.458011801,-588950.2273738655,0.218,0.098,0.962,192.0,0.0,0.0,0.0,0.0,0.0,0.0,0.0,0.0,0.0,1747524791.0906527,0.0, 2025-05-17 16:33:11.090
48.0,-82188.88428078702,93557.07091773402,-486646.9188507699,-15841.843586187792,-561823.9714889493,-588603.5965208526,-588833.1936398976,-588966.0524089399,0.218,0.098,0.962,192.0,0.0,0.0,0.0,0.0,0.0,0.0,0.0,0.0,0.0,1747524791.0907023,0.0, 2025-05-17 16:33:11.090
49.0,-82197.82497856916,93564.04466200407,-486568.33011726505,-15750.02261996539,-561878.9567803093,-588621.6567303726,-588849.7339307945,-588981.9668509921,0.218,0.098,0.962,192.0,0.0,0.0,0.0,0.0,0.0,0.0,0.0,0.0,0.0,1747524791.0907593,0.0, 2025-05-17 16:33:11.090
50.0,-82222.0542695587,93550.90183626435,-486509.76854679215,-15677.066526063269,-561957.634920792,-588655.0949400777,-588881.5628148989,-589013.7063281187,0.218,0.098,0.962,192.0,0.0,0.0,0.0,0.0,0.0,0.0,0.0,0.0,0.0,1747524791.09081,0.0, 2025-05-17 16:33:11.090
51.0,-82220.98138582485,93558.50142937916,-486429.83870862,-15584.79852495176,-562017.179968021,-588678.3407543112,-588904.003966332,-589036.4157004852,0.218,0.098,0.962,192.0,0.0,0.0,0.0,0.0,0.0,0.0,0.0,0.0,0.0,1747524791.0908597,0.0, 2025-05-17 16:33:11.090
52.0,-82195.67921110144,93587.7375111267,-486328.0935678594,-15474.023279431258,-562057.9495499075,-588695.7751149863,-588921.6171409627,-589054.028875116,0.226,0.106,0.958,192.0,7.0,16.0,3.0,80.0,29.0,240.0,0.0,0.0,0.0,1747524791.0909235,0.0, 2025-05-17 16:33:11.090
53.0,-82191.03004825475,93593.37015072945,-486248.8789855098,-15389.176057478911,-562125.9882600293,-588717.4116036191,-588942.7171877286,-589074.9501079262,0.226,0.106,0.958,192.0,0.0,0.0,0.0,0.0,0.0,0.0,0.0,0.0,0.0,1747524791.0909767,0.0, 2025-05-17 16:33:11.090
54.0,-82206.13982750653,93574.50527840915,-486194.1619150832,-15330.79330096165,-562220.0444006973,-588745.5748016328,-588970.0757229419,-589102.4874570952,0.226,0.106,0.958,192.0,0.0,0.0,0.0,0.0,0.0,0.0,0.0,0.0,0.0,1747524791.091026,0.0, 2025-05-17 16:33:11.091
55.0,-82201.66947861547,93572.53832489708,-486123.9774374935,-15259.714753593777,-562302.0305993594,-588769.1782437776,-588993.6791650867,-589126.0014922621,0.226,0.106,0.958,192.0,0.0,0.0,0.0,0.0,0.0,0.0,0.0,0.0,0.0,1747524791.0910745,0.0, 2025-05-17 16:33:11.091
56.0,-82160.72108277335,93604.45661597927,-486021.33822695474,-15156.896729099362,-562353.5290185844,-588781.7846276504,-589007.0902117599,-589138.7866900906,0.226,0.106,0.958,192.0,0.0,0.0,0.0,0.0,0.0,0.0,0.0,0.0,0.0,1747524791.0911355,0.0, 2025-05-17 16:33:11.091
57.0,-82131.75322195927,93621.71216269876,-485934.16642357904,-15071.423658302268,-562421.4783217285,-588800.2918720593,-589025.6868631467,-589158.1880042778,0.226,0.106,0.958,192.0,0.0,0.0,0.0,0.0,0.0,0.0,0.0,0.0,0.0,1747524791.091185,0.0, 2025-05-17 16:33:11.091
58.0,-82134.97187316083,93607.85408113648,-485877.39299266256,-15019.567611165956,-562530.5548346704,-588830.0643956738,-589057.4263402732,-589190.3745162934,0.226,0.106,0.958,192.0,0.0,0.0,0.0,0.0,0.0,0.0,0.0,0.0,0.0,1747524791.0912564,0.0, 2025-05-17 16:33:11.091
59.0,-82127.81931493513,93600.96974384424,-485812.39411978656,-14962.078924426904,-562763.9070467838,-588855.7241983085,-589080.046305662,-589212.8156677266,0.226,0.106,0.958,192.0,0.0,0.0,0.0,0.0,0.0,0.0,0.0,0.0,0.0,1747524791.0913055,0.0, 2025-05-17 16:33:11.091
60.0,-82099.83493087708,93611.43036024932,-485727.1892699229,-14886.172400256684,-562812.6338496964,-588876.9136520522,-589095.1560849138,-589227.567819067,0.226,0.106,0.958,192.0,0.0,0.0,0.0,0.0,0.0,0.0,0.0,0.0,0.0,1747524791.091355,0.0, 2025-05-17 16:33:11.091
61.0,-82083.38404695799,93609.01637184816,-485653.4285132204,-14825.643876271712,-562629.796580052,-588900.3382802414,-589121.9781782601,-589254.6581333468,0.226,0.106,0.958,192.0,0.0,0.0,0.0,0.0,0.0,0.0,0.0,0.0,0.0,1747524791.091405,0.0, 2025-05-17 16:33:11.091
62.0,-82095.63280291948,93576.74045285468,-485609.2614661767,-14798.195934080592,-562470.2051246411,-588928.6802922107,-589164.0888648139,-589296.7688199007,0.23,0.096,0.952,192.0,7.0,48.0,3.0,0.0,29.0,192.0,0.0,0.0,0.0,1747524791.091454,0.0, 2025-05-17 16:33:11.091
63.0,-82102.96417510083,93550.09717346396,-485558.2994888186,-14765.741201131488,-562206.6333540241,-588957.02230418,-589198.3317373195,-589331.101099384,0.23,0.096,0.952,192.0,0.0,0.0,0.0,0.0,0.0,0.0,0.0,0.0,0.0,1747524791.0915065,0.0, 2025-05-17 16:33:11.091
64.0,-82061.74755832524,93569.40908067336,-485459.05774343706,-14688.404165316126,-561951.1976183889,-588990.9075487743,-589215.8555049724,-589348.6248670369,0.23,0.096,0.952,192.0,0.0,0.0,0.0,0.0,0.0,0.0,0.0,0.0,0.0,1747524791.091555,0.0, 2025-05-17 16:33:11.091
65.0,-82011.14320887843,93595.33710424152,-485349.8918235173,-14606.060338742776,-561997.6892468559,-589013.2592932296,-589238.564877339,-589371.3342394036,0.23,0.096,0.952,192.0,0.0,0.0,0.0,0.0,0.0,0.0,0.0,0.0,0.0,1747524791.0916045,0.0, 2025-05-17 16:33:11.091
66.0,-81991.47367375776,93588.72098788274,-485269.60435743385,-14556.886500941098,-562106.9445737535,-589026.6703399027,-589258.4132264153,-589391.0931815021,0.23,0.096,0.952,192.0,0.0,0.0,0.0,0.0,0.0,0.0,0.0,0.0,0.0,1747524791.091656,0.0, 2025-05-17 16:33:11.091
67.0,-81977.61559219546,93578.97562730024,-485191.9096937073,-14513.16648878652,-562222.9054239875,-589052.1513285817,-589284.6988778948,-589417.2000190258,0.23,0.096,0.952,192.0,0.0,0.0,0.0,0.0,0.0,0.0,0.0,0.0,0.0,1747524791.091705,0.0, 2025-05-17 16:33:11.091
68.0,-81932.7332893292,93598.1981275318,-485080.8662272533,-14439.495139061826,-562307.8420529178,-589081.2980033515,-589311.1633433299,-589443.3962635275,0.23,0.096,0.952,192.0,0.0,0.0,0.0,0.0,0.0,0.0,0.0,0.0,0.0,1747524791.0917697,0.0, 2025-05-17 16:33:11.091
69.0,-81878.55266076955,93627.34480230152,-484954.1765396806,-14356.257242710262,-562382.1392514872,-589096.8548174924,-589324.2167620917,-589456.7179032228,0.23,0.096,0.952,192.0,0.0,0.0,0.0,0.0,0.0,0.0,0.0,0.0,0.0,1747524791.0918186,0.0, 2025-05-17 16:33:11.091
70.0,-81854.41277675782,93626.62954647894,-484854.39835243206,-14302.25542810624,-562486.0301597154,-589117.4184223913,-589342.7240065008,-589475.4039615875,0.23,0.096,0.952,192.0,0.0,0.0,0.0,0.0,0.0,0.0,0.0,0.0,0.0,1747524791.0918677,0.0, 2025-05-17 16:33:11.091
71.0,-81838.85596261692,93615.45367425129,-484760.431618742,-14258.624822929482,-562600.6499052823,-589152.8235856085,-589377.8609487845,-589510.4514968934,0.23,0.096,0.952,192.0,0.0,0.0,0.0,0.0,0.0,0.0,0.0,0.0,0.0,1747524791.0919292,0.0, 2025-05-17 16:33:11.091
72.0,-81796.74527606313,93630.38463954742,-484634.90422188095,-14188.350938361997,-562688.9839993697,-589176.6952486867,-589401.643204885,-589534.144346016,0.216,0.092,0.966,192.0,6.0,192.0,2.0,224.0,30.0,48.0,0.0,0.0,0.0,1747524791.0919783,0.0, 2025-05-17 16:33:11.091
73.0,-81737.20022883419,93663.28640738565,-484490.9589875888,-14101.894390808868,-562760.0625467375,-589190.2851093155,-589415.4118794694,-589548.0024275783,0.216,0.092,0.966,192.0,0.0,0.0,0.0,0.0,0.0,0.0,0.0,0.0,0.0,1747524791.0920565,0.0, 2025-05-17 16:33:11.092
