Sample Index, EXG Channel 0, EXG Channel 1, EXG Channel 2, EXG Channel 3, EXG Channel 4, EXG Channel 5, EXG Channel 6, EXG Channel 7, Accel Channel 0, Accel Channel 1, Accel Channel 2, Not Used, Digital Channel 0 (D11), Digital Channel 1 (D12), Digital Channel 2 (D13), Digital Channel 3 (D17), Not Used.1, Digital Channel 4 (D18), Analog Channel 0, Analog Channel 1, Analog Channel 2, Timestamp, Marker Channel, Timestamp (Formatted)
0.0,-731730.5781520102,-535156.1051793224,-731112.0606794431,-730427.2926363102,-648645.4783255432,-649957.0786901807,-610663.1589726399,-578578.570911714,0.178,-0.13,0.454,192.0,5.0,144.0,251.0,240.0,14.0,48.0,0.0,0.0,0.0,1747538296.156603,0.0, 2025-05-17 20:18:16.156
1.0,-731755.2544778889,-535137.5979349135,-731106.1598189068,-729882.0888855563,-648662.7338722628,-649999.8152255792,-610743.6252526791,-578652.3316684165,0.178,-0.13,0.454,192.0,0.0,0.0,0.0,0.0,0.0,0.0,0.0,0.0,0.0,1747538296.156772,0.0, 2025-05-17 20:18:16.156
2.0,-731639.651255566,-535147.1644815403,-731057.3436090164,-729788.5691867553,-648692.595802855,-650054.3534820501,-610835.8932537906,-578738.1623671249,0.178,-0.13,0.454,192.0,0.0,0.0,0.0,0.0,0.0,0.0,0.0,0.0,0.0,1747538296.1568224,0.0, 2025-05-17 20:18:16.156
3.0,-731528.4289751565,-535090.7486785351,-731014.9647015291,-729834.1667454442,-648652.5414767911,-650039.7801446653,-610858.4238122015,-578754.3450301106,0.178,-0.13,0.454,192.0,0.0,0.0,0.0,0.0,0.0,0.0,0.0,0.0,0.0,1747538296.1568673,0.0, 2025-05-17 20:18:16.156
4.0,-731476.125893131,-534956.0123629585,-730973.1222359089,-729811.0997451664,-648550.2598941637,-649967.2710856523,-610818.9953349824,-578710.088576089,0.178,-0.13,0.454,192.0,0.0,0.0,0.0,0.0,0.0,0.0,0.0,0.0,0.0,1747538296.1569092,0.0, 2025-05-17 20:18:16.156
5.0,-731487.7488002478,-534900.222408798,-730898.6462233837,-729878.780827377,-648531.9314637103,-649977.374074146,-610862.9835680705,-578750.6793440199,0.178,-0.13,0.454,192.0,0.0,0.0,0.0,0.0,0.0,0.0,0.0,0.0,0.0,1747538296.1569517,0.0, 2025-05-17 20:18:16.156
6.0,-731414.2562644788,-534901.9211413767,-730843.0350831789,-730001.804828859,-648562.598057103,-650031.9123306171,-610954.8045342928,-578837.2252985508,0.178,-0.13,0.454,192.0,0.0,0.0,0.0,0.0,0.0,0.0,0.0,0.0,0.0,1747538296.1569932,0.0, 2025-05-17 20:18:16.156
7.0,-731291.142856019,-534849.6180593512,-730795.3811640003,-730050.0845968825,-648527.9975566862,-650023.5080747019,-610982.4312904396,-578857.8783104275,0.274,-0.192,0.6900000000000001,192.0,8.0,144.0,250.0,0.0,21.0,144.0,0.0,0.0,0.0,1747538296.1570346,0.0, 2025-05-17 20:18:16.157
8.0,-731248.8533555095,-534728.739825337,-730739.4123958842,-730039.802794433,-648439.9316835322,-649962.7113297834,-610958.20199945,-578826.138833301,0.274,-0.192,0.6900000000000001,192.0,0.0,0.0,0.0,0.0,0.0,0.0,0.0,0.0,0.0,1747538296.1570776,0.0, 2025-05-17 20:18:16.157
9.0,-731239.7338437717,-534639.4222544936,-730666.9033368711,-730070.3799808479,-648389.1485201297,-649939.2867015942,-610971.0766042563,-578830.6985891699,0.274,-0.192,0.6900000000000001,192.0,0.0,0.0,0.0,0.0,0.0,0.0,0.0,0.0,0.0,1747538296.1571183,0.0, 2025-05-17 20:18:16.157
10.0,-731286.136065261,-534635.0413125803,-730628.9053712972,-730190.1853311283,-648423.3913926353,-649998.0270860228,-611067.278512392,-578920.3737879245,0.274,-0.192,0.6900000000000001,192.0,0.0,0.0,0.0,0.0,0.0,0.0,0.0,0.0,0.0,1747538296.157159,0.0, 2025-05-17 20:18:16.157
11.0,-731148.6281333719,-534599.5467423853,-730563.1018356207,-730403.9574150989,-648411.5896715629,-650010.45465594,-611118.0616757944,-578962.0374395893,0.274,-0.192,0.6900000000000001,192.0,0.0,0.0,0.0,0.0,0.0,0.0,0.0,0.0,0.0,1747538296.1572003,0.0, 2025-05-17 20:18:16.157
12.0,-731060.2046323067,-534520.3321600356,-730511.0669745287,-730757.025570515,-648354.1903918016,-649977.6422950795,-611122.8002456189,-578956.8518348756,0.274,-0.192,0.6900000000000001,192.0,0.0,0.0,0.0,0.0,0.0,0.0,0.0,0.0,0.0,1747538296.1572416,0.0, 2025-05-17 20:18:16.157
13.0,-731092.3017373445,-534480.7248688609,-730467.0787414407,-730653.0452553089,-648348.8259731324,-649996.3283534442,-611181.3618160918,-579006.9197424555,0.274,-0.192,0.6900000000000001,192.0,0.0,0.0,0.0,0.0,0.0,0.0,0.0,0.0,0.0,1747538296.1572824,0.0, 2025-05-17 20:18:16.157
14.0,-731035.1706785167,-534502.3613574936,-730439.4519852939,-730499.4440674119,-648395.6752295108,-650066.8704589452,-611292.8523174349,-579110.721243706,0.274,-0.192,0.6900000000000001,192.0,0.0,0.0,0.0,0.0,0.0,0.0,0.0,0.0,0.0,1747538296.1573226,0.0, 2025-05-17 20:18:16.157
15.0,-730903.2059792526,-534516.2194390559,-730377.850577575,-730321.0771466586,-648417.3117181435,-650112.7362385674,-611380.0241208106,-579190.0252330333,0.274,-0.192,0.6900000000000001,192.0,0.0,0.0,0.0,0.0,0.0,0.0,0.0,0.0,0.0,1747538296.157634,0.0, 2025-05-17 20:18:16.157
16.0,-730864.7609787895,-534440.7599497748,-730312.8517046991,-730070.1117599144,-648364.1145663399,-650085.7353312654,-611392.2728767721,-579192.8862563237,0.274,-0.192,0.6900000000000001,192.0,0.0,0.0,0.0,0.0,0.0,0.0,0.0,0.0,0.0,1747538296.157679,0.0, 2025-05-17 20:18:16.157
19.0,-730717.8653142293,-534459.9824500063,-730172.7509704531,-729473.5884038912,-648457.8130790965,-650253.2840077024,-611679.8057174451,-579452.0770850274,0.274,-0.192,0.6900000000000001,192.0,0.0,0.0,0.0,0.0,0.0,0.0,0.0,0.0,0.0,1747538296.1577387,0.0, 2025-05-17 20:18:16.157
21.0,-730623.45154565,-534260.8731103984,-730114.4576209137,-728676.7040105705,-648316.1924262276,-650167.3639020162,-611666.9311126389,-579420.5164218565,0.274,-0.192,0.6900000000000001,192.0,0.0,0.0,0.0,0.0,0.0,0.0,0.0,0.0,0.0,1747538296.6382134,0.0, 2025-05-17 20:18:16.638
22.0,-730653.2240692645,-534234.7662728747,-730028.4481082497,-728779.7008490206,-648328.7094031227,-650205.004239679,-611742.4800088978,-579488.3763180228,0.274,-0.192,0.6900000000000001,192.0,0.0,0.0,0.0,0.0,0.0,0.0,0.0,0.0,0.0,1747538296.638278,0.0, 2025-05-17 20:18:16.638
23.0,-730533.7763468953,-534219.7459006007,-730005.3811079719,-728874.7404664446,-648335.9513683262,-650237.2801586724,-611811.5916027536,-579551.8552722759,0.274,-0.192,0.6900000000000001,192.0,0.0,0.0,0.0,0.0,0.0,0.0,0.0,0.0,0.0,1747538296.6383505,0.0, 2025-05-17 20:18:16.638
24.0,-730399.3082522522,-534144.6440392309,-729909.5368277475,-728903.5295133031,-648275.1546234078,-650203.8419489673,-611814.2738120883,-579547.5637373405,0.274,-0.192,0.6900000000000001,192.0,0.0,0.0,0.0,0.0,0.0,0.0,0.0,0.0,0.0,1747538296.638421,0.0, 2025-05-17 20:18:16.638
25.0,-730340.4784608458,-534003.6492352068,-729854.730350343,-728875.4557222672,-648167.0615872218,-650125.6108433737,-611769.5703231776,-579495.0818413594,0.274,-0.192,0.6900000000000001,192.0,0.0,0.0,0.0,0.0,0.0,0.0,0.0,0.0,0.0,1747538296.6384811,0.0, 2025-05-17 20:18:16.638
26.0,-730381.6950776214,-533962.9690602982,-729777.4827215056,-728962.1804907537,-648166.4357383772,-650152.7905646313,-611832.2446146304,-579551.1400164533,0.274,-0.192,0.6900000000000001,192.0,0.0,0.0,0.0,0.0,0.0,0.0,0.0,0.0,0.0,1747538296.6385372,0.0, 2025-05-17 20:18:16.638
27.0,-730410.8417523911,-533947.501653135,-729736.26610473,-729069.7370850727,-648187.7145990985,-650199.013972165,-611917.0918365826,-579628.5664592464,0.332,-0.236,0.858,192.0,10.0,96.0,248.0,160.0,26.0,208.0,0.0,0.0,0.0,1747538296.638573,0.0, 2025-05-17 20:18:16.638
28.0,-730247.852831823,-533878.032431368,-729692.6354995532,-729104.4269924674,-648141.2229706316,-650177.2880765543,-611931.8439879232,-579635.1825756052,0.332,-0.236,0.858,192.0,0.0,0.0,0.0,0.0,0.0,0.0,0.0,0.0,0.0,1747538296.6386116,0.0, 2025-05-17 20:18:16.638
29.0,-730177.1319123665,-533780.1317906537,-729630.3188360118,-729111.4007367374,-648068.3562837072,-650132.0481457768,-611920.8469296512,-579617.301180041,0.332,-0.236,0.858,192.0,0.0,0.0,0.0,0.0,0.0,0.0,0.0,0.0,0.0,1747538296.638646,0.0, 2025-05-17 20:18:16.638
30.0,-730181.6022612575,-533731.4049877411,-729559.0614746882,-729202.8640750485,-648055.1240509896,-650145.9956343169,-611972.0771279427,-579661.3788201069,0.332,-0.236,0.858,192.0,0.0,0.0,0.0,0.0,0.0,0.0,0.0,0.0,0.0,1747538296.6386807,0.0, 2025-05-17 20:18:16.638
31.0,-730077.1749111624,-533733.9083831202,-729539.1237186341,-729620.752289385,-648079.7109698905,-650196.5105767859,-612060.3218150523,-579741.5768792125,0.332,-0.236,0.858,192.0,0.0,0.0,0.0,0.0,0.0,0.0,0.0,0.0,0.0,1747538296.6387153,0.0, 2025-05-17 20:18:16.638
32.0,-730028.1798873163,-533691.5294756329,-729492.9897180784,-729796.0793728924,-648057.98507428,-650202.5902512778,-612100.8231760053,-579774.9256819398,0.332,-0.236,0.858,192.0,0.0,0.0,0.0,0.0,0.0,0.0,0.0,0.0,0.0,1747538296.63875,0.0, 2025-05-17 20:18:16.638
33.0,-730018.7921546451,-533596.1322302977,-729428.5272870692,-729551.0148466844,-647999.1552828735,-650168.7944136614,-612102.8795364952,-579769.1142283814,0.332,-0.236,0.858,192.0,0.0,0.0,0.0,0.0,0.0,0.0,0.0,0.0,0.0,1747538296.6389172,0.0, 2025-05-17 20:18:16.638
34.0,-730021.5637709575,-533560.0118112578,-729362.4555304594,-729349.5809256531,-647997.5459572728,-650191.5037860279,-612164.6597581697,-579822.4901941407,0.332,-0.236,0.858,192.0,0.0,0.0,0.0,0.0,0.0,0.0,0.0,0.0,0.0,1747538296.638958,0.0, 2025-05-17 20:18:16.638
35.0,-729943.2432583862,-533616.96405613,-729357.7169606349,-729225.126412526,-648074.2571442435,-650291.997229099,-612306.9956668611,-579957.7629515843,0.332,-0.236,0.858,192.0,0.0,0.0,0.0,0.0,0.0,0.0,0.0,0.0,0.0,1747538296.6389952,0.0, 2025-05-17 20:18:16.638
36.0,-729826.5671523294,-533633.9513819161,-729298.4401343394,-729050.1569569298,-648100.989830612,-650341.7969157454,-612398.3695981944,-580040.0173711798,0.332,-0.236,0.858,192.0,0.0,0.0,0.0,0.0,0.0,0.0,0.0,0.0,0.0,1747538296.6390324,0.0, 2025-05-17 20:18:16.639
37.0,-729794.8276752029,-533554.2003576994,-729231.3849009735,-728798.1186864518,-648046.0939462298,-650312.3820200423,-612407.6679238877,-580039.7491502463,0.354,-0.248,0.88,192.0,11.0,16.0,248.0,64.0,27.0,128.0,0.0,0.0,0.0,1747538296.63907,0.0, 2025-05-17 20:18:16.639
38.0,-729801.0861636504,-533486.1616475775,-729162.8097489846,-728565.0346952719,-648013.1921783915,-650305.5870897279,-612438.8709591473,-580062.8161505242,0.354,-0.248,0.88,192.0,0.0,0.0,0.0,0.0,0.0,0.0,0.0,0.0,0.0,1747538296.6391096,0.0, 2025-05-17 20:18:16.639
39.0,-729788.0327448884,-533521.4774038169,-729152.2597256016,-728204.0987258076,-648077.5652024228,-650393.7423698596,-612567.1699723208,-580184.1414194276,0.354,-0.248,0.88,192.0,0.0,0.0,0.0,0.0,0.0,0.0,0.0,0.0,0.0,1747538296.6391451,0.0, 2025-05-17 20:18:16.639
40.0,-729648.0214176204,-533506.8146594543,-729144.9283534203,-727763.5905460824,-648076.4029117111,-650417.971660849,-612627.9667172392,-580239.7525596324,0.354,-0.248,0.88,192.0,0.0,0.0,0.0,0.0,0.0,0.0,0.0,0.0,0.0,1747538296.6391797,0.0, 2025-05-17 20:18:16.639
41.0,-729595.8077425729,-533402.8343442482,-729071.5252246291,-727726.4866502866,-647999.5129107849,-650367.9037532692,-612610.2641356307,-580218.1160709996,0.354,-0.248,0.88,192.0,0.0,0.0,0.0,0.0,0.0,0.0,0.0,0.0,0.0,1747538296.6392207,0.0, 2025-05-17 20:18:16.639
42.0,-729569.0750562042,-533290.360366149,-728994.1881888137,-727736.768452736,-647924.947491282,-650321.6803457356,-612597.0319029131,-580199.6982335685,0.354,-0.248,0.88,192.0,0.0,0.0,0.0,0.0,0.0,0.0,0.0,0.0,0.0,1747538296.6392584,0.0, 2025-05-17 20:18:16.639
43.0,-729588.3869634137,-533279.1844939213,-728934.3749206513,-727855.5903262604,-647951.0543288058,-650373.1787649606,-612687.1541365569,-580281.0585833858,0.354,-0.248,0.88,192.0,0.0,0.0,0.0,0.0,0.0,0.0,0.0,0.0,0.0,1747538296.639316,0.0, 2025-05-17 20:18:16.639
44.0,-729438.3620546296,-533263.0912379136,-728890.6549084968,-727945.1761180373,-647951.6801776505,-650401.3419629744,-612751.2589396548,-580338.8154910583,0.354,-0.248,0.88,192.0,0.0,0.0,0.0,0.0,0.0,0.0,0.0,0.0,0.0,1747538296.6393516,0.0, 2025-05-17 20:18:16.639
45.0,-729331.3419021777,-533174.1312949815,-728853.3721987454,-727957.9613158657,-647879.7075605044,-650360.1253461988,-612742.139427917,-580323.1692699397,0.354,-0.248,0.88,192.0,0.0,0.0,0.0,0.0,0.0,0.0,0.0,0.0,0.0,1747538296.6393852,0.0, 2025-05-17 20:18:16.639
47.0,-729362.9919723263,-533057.9022238138,-728737.5901624669,-728082.4158289928,-647836.3451762612,-650371.9270672712,-612824.0362196012,-580390.0456893499,0.372,-0.256,0.9,192.0,11.0,160.0,248.0,0.0,28.0,32.0,0.0,0.0,0.0,1747538296.63942,0.0, 2025-05-17 20:18:16.639
48.0,-729262.7667501888,-533048.6038981205,-728684.6612315967,-728189.1677605114,-647853.1536880916,-650411.981393335,-612901.8202903057,-580462.018306496,0.372,-0.256,0.9,192.0,0.0,0.0,0.0,0.0,0.0,0.0,0.0,0.0,0.0,1747538296.6394556,0.0, 2025-05-17 20:18:16.639
49.0,-729145.7330162207,-532983.6944322222,-728639.957742686,-728256.0441799217,-647807.7349433583,-650390.2554977245,-612916.3042207127,-580470.0649344999,0.372,-0.256,0.9,192.0,0.0,0.0,0.0,0.0,0.0,0.0,0.0,0.0,0.0,1747538296.6395257,0.0, 2025-05-17 20:18:16.639
50.0,-729148.7728534667,-532903.9434080056,-728557.2562882014,-728636.3814635732,-647761.869163736,-650371.9270672712,-612935.7055349,-580479.005632282,0.372,-0.256,0.9,192.0,0.0,0.0,0.0,0.0,0.0,0.0,0.0,0.0,0.0,1747538296.6395607,0.0, 2025-05-17 20:18:16.639
51.0,-729156.8194814706,-532910.0230824975,-728512.8210202242,-728797.3140236514,-647802.3705246891,-650437.1941610806,-613041.3845826846,-580575.028726462,0.372,-0.256,0.9,192.0,0.0,0.0,0.0,0.0,0.0,0.0,0.0,0.0,0.0,1747538296.6395955,0.0, 2025-05-17 20:18:16.639
52.0,-729079.8400735665,-532999.1618393853,-728515.3244156033,-728702.0955922718,-647906.440246873,-650563.7050346977,-613206.4298637427,-580733.5472981391,0.372,-0.256,0.9,192.0,0.0,0.0,0.0,0.0,0.0,0.0,0.0,0.0,0.0,1747538296.6396303,0.0, 2025-05-17 20:18:16.639
53.0,-728965.9355838222,-532970.7304204381,-728463.0213335778,-728484.6578222106,-647889.3635141092,-650570.8575929235,-613253.1003061653,-580769.041868334,0.372,-0.256,0.9,192.0,0.0,0.0,0.0,0.0,0.0,0.0,0.0,0.0,0.0,1747538296.6396644,0.0, 2025-05-17 20:18:16.639
54.0,-728929.3681298933,-532859.3293260729,-728384.9690419399,-728205.7974583862,-647808.3607922031,-650515.514673652,-613236.738829224,-580739.8057865865,0.372,-0.256,0.9,192.0,0.0,0.0,0.0,0.0,0.0,0.0,0.0,0.0,0.0,1747538296.6396985,0.0, 2025-05-17 20:18:16.639
55.0,-728939.6499323428,-532800.5889416443,-728318.8078783522,-727984.1575603674,-647784.1315012135,-650515.4252666743,-613278.1342599553,-580771.9922986021,0.372,-0.256,0.9,192.0,0.0,0.0,0.0,0.0,0.0,0.0,0.0,0.0,0.0,1747538296.6397316,0.0, 2025-05-17 20:18:16.639
56.0,-728891.4595712972,-532824.7288256561,-728291.7175640723,-727835.294942295,-647834.1100018156,-650588.8283954655,-613394.6315520563,-580877.9395673203,0.372,-0.256,0.9,192.0,0.0,0.0,0.0,0.0,0.0,0.0,0.0,0.0,0.0,1747538296.6397655,0.0, 2025-05-17 20:18:16.639
57.0,-728755.2927440754,-532799.1584299993,-728225.2881795513,-727550.4443109565,-647820.3413272311,-650602.2394421387,-613445.6829363923,-580918.619742229,0.38,-0.254,0.906,192.0,11.0,224.0,248.0,16.0,28.0,80.0,0.0,0.0,0.0,1747538296.6398003,0.0, 2025-05-17 20:18:16.639
58.0,-728712.9138365882,-532692.3170915028,-728186.9325860658,-726909.4856869562,-647742.1102216375,-650552.52916247,-613429.1426454952,-580895.1951140398,0.38,-0.254,0.906,192.0,0.0,0.0,0.0,0.0,0.0,0.0,0.0,0.0,0.0,1747538296.6398394,0.0, 2025-05-17 20:18:16.639
59.0,-728713.8973133442,-532608.72156724,-728171.4651789028,-726747.7484640776,-647699.5525001946,-650535.8100576175,-613445.6829363923,-580908.0697188461,0.38,-0.254,0.906,192.0,0.0,0.0,0.0,0.0,0.0,0.0,0.0,0.0,0.0,1747538296.6398816,0.0, 2025-05-17 20:18:16.639
60.0,-728751.1800230957,-532610.9567416855,-728105.1252013595,-726880.8754540534,-647741.9314076819,-650602.1500351608,-613549.5738446205,-581004.629254893,0.38,-0.254,0.906,192.0,0.0,0.0,0.0,0.0,0.0,0.0,0.0,0.0,0.0,1747538296.6399226,0.0, 2025-05-17 20:18:16.639
61.0,-728585.955928082,-532571.2600435329,-728059.5276426707,-726949.9870479092,-647721.7254306943,-650610.1966631648,-613594.1879265533,-581039.140348332,0.38,-0.254,0.906,192.0,0.0,0.0,0.0,0.0,0.0,0.0,0.0,0.0,0.0,1747538296.639959,0.0, 2025-05-17 20:18:16.639
62.0,-728475.0018686058,-532469.6043097501,-728005.4364210888,-726951.6857804878,-647639.7392320322,-650557.2677322946,-613577.0217868116,-581012.5864759191,0.38,-0.254,0.906,192.0,0.0,0.0,0.0,0.0,0.0,0.0,0.0,0.0,0.0,1747538296.6399927,0.0, 2025-05-17 20:18:16.639
63.0,-728464.5412522008,-532370.7201922799,-727933.821431854,-726972.9646412092,-647578.1378243135,-650522.6672318778,-613577.9158565898,-581005.5233246712,0.38,-0.254,0.906,192.0,0.0,0.0,0.0,0.0,0.0,0.0,0.0,0.0,0.0,1747538296.6400344,0.0, 2025-05-17 20:18:16.640
64.0,-728503.433287553,-532362.5841572981,-727858.1831286172,-727094.2005031349,-647608.357382817,-650578.0101511491,-613670.8991135239,-581092.15868618,0.38,-0.254,0.906,192.0,0.0,0.0,0.0,0.0,0.0,0.0,0.0,0.0,0.0,1747538296.6401677,0.0, 2025-05-17 20:18:16.640
65.0,-728357.6999137044,-532335.3150290627,-727836.0996050953,-727174.3091552627,-647603.1717781033,-650596.8750234693,-613727.851358396,-581141.6007449152,0.38,-0.254,0.906,192.0,0.0,0.0,0.0,0.0,0.0,0.0,0.0,0.0,0.0,1747538296.6402085,0.0, 2025-05-17 20:18:16.640
66.0,-728247.6399240065,-532262.6271560941,-727752.772301766,-727205.154562611,-647547.828858832,-650567.8177556775,-613736.3450212891,-581141.6007449152,0.38,-0.254,0.906,192.0,0.0,0.0,0.0,0.0,0.0,0.0,0.0,0.0,0.0,1747538296.6402433,0.0, 2025-05-17 20:18:16.640
67.0,-728217.7779934142,-532146.576898882,-727709.4993245006,-727204.5287137663,-647466.2002880812,-650514.3523829404,-613718.2848117691,-581116.209163214,0.36,-0.254,0.902,192.0,11.0,64.0,248.0,16.0,28.0,48.0,0.0,0.0,0.0,1747538296.6402776,0.0, 2025-05-17 20:18:16.640
68.0,-728281.435761623,-532142.9112127913,-727649.775463316,-727449.8614609077,-647502.5889280544,-650575.8643836814,-613818.5994408845,-581209.1924201479,0.36,-0.254,0.902,192.0,0.0,0.0,0.0,0.0,0.0,0.0,0.0,0.0,0.0,1747538296.640314,0.0, 2025-05-17 20:18:16.640
69.0,-728182.372830197,-532134.7751778096,-727606.5918930284,-727897.7010128142,-647518.9504049958,-650617.1704074348,-613898.6186860346,-581281.8802931167,0.36,-0.254,0.902,192.0,0.0,0.0,0.0,0.0,0.0,0.0,0.0,0.0,0.0,1747538296.6403477,0.0, 2025-05-17 20:18:16.640
70.0,-728047.815328576,-532108.578933308,-727570.739694922,-727805.2541977471,-647502.320707121,-650627.8992447733,-613945.8255703242,-581321.1299563801,0.36,-0.254,0.902,192.0,0.0,0.0,0.0,0.0,0.0,0.0,0.0,0.0,0.0,1747538296.6403823,0.0, 2025-05-17 20:18:16.640
71.0,-728048.9776192878,-532039.9143743414,-727505.1149732012,-727566.8057878979,-647462.8922299019,-650615.8293027675,-613969.9654543359,-581336.0609216763,0.36,-0.254,0.902,192.0,0.0,0.0,0.0,0.0,0.0,0.0,0.0,0.0,0.0,1747538296.6404176,0.0, 2025-05-17 20:18:16.640
72.0,-728096.4527245108,-532032.8512230935,-727455.4941005104,-727396.7537160818,-647493.2011953832,-650671.7086639057,-614063.8427810482,-581420.4611087396,0.36,-0.254,0.902,192.0,0.0,0.0,0.0,0.0,0.0,0.0,0.0,0.0,0.0,1747538296.640452,0.0, 2025-05-17 20:18:16.640
73.0,-728006.2410838892,-532061.550862974,-727420.4465652045,-727246.1029584531,-647543.80554483,-650746.3634903865,-614177.5684568367,-581524.1732030122,0.36,-0.254,0.902,192.0,0.0,0.0,0.0,0.0,0.0,0.0,0.0,0.0,0.0,1747538296.640487,0.0, 2025-05-17 20:18:16.640
74.0,-727879.1043614274,-532030.7054556258,-727366.3553436226,-727026.1617930129,-647523.5995678424,-650750.6550253219,-614218.6956666346,-581558.5948894734,0.36,-0.254,0.902,192.0,0.0,0.0,0.0,0.0,0.0,0.0,0.0,0.0,0.0,1747538296.6405213,0.0, 2025-05-17 20:18:16.640
75.0,-727871.0577334235,-531950.5073965201,-727293.2204357649,-726777.1633597808,-647472.5481835066,-650724.4587808202,-614228.3516202392,-581563.5122732535,0.36,-0.254,0.902,192.0,0.0,0.0,0.0,0.0,0.0,0.0,0.0,0.0,0.0,1747538296.6405556,0.0, 2025-05-17 20:18:16.640
76.0,-727904.1383152173,-531947.8251871854,-727242.5266793403,-726573.3154503483,-647504.6452885444,-650779.9805140472,-614322.3183539293,-581650.8628905849,0.36,-0.254,0.902,192.0,0.0,0.0,0.0,0.0,0.0,0.0,0.0,0.0,0.0,1747538296.64059,0.0, 2025-05-17 20:18:16.640
77.0,-727814.5525234404,-531990.8299435175,-727219.9961209293,-726088.5508166016,-647567.2301730192,-650863.3972243544,-614445.0741344779,-581767.9860315307,0.352,-0.25,0.908,192.0,11.0,0.0,248.0,48.0,28.0,96.0,0.0,0.0,0.0,1747538296.6406243,0.0, 2025-05-17 20:18:16.640
78.0,-727714.774336192,-531927.3509892644,-727188.9718996254,-725821.9392087387,-647518.7715910401,-650841.3137008327,-614458.3063671954,-581776.7479153571,0.352,-0.25,0.908,192.0,0.0,0.0,0.0,0.0,0.0,0.0,0.0,0.0,0.0,1747538296.640688,0.0, 2025-05-17 20:18:16.640
79.0,-727676.7763706179,-531802.0024063591,-727107.7903637637,-725812.0150342006,-647427.5764736625,-650776.9406768014,-614431.0372389599,-581742.6838568073,0.352,-0.25,0.908,192.0,0.0,0.0,0.0,0.0,0.0,0.0,0.0,0.0,0.0,1747538296.640726,0.0, 2025-05-17 20:18:16.640
80.0,-727664.7958355899,-531731.6391148138,-727098.4920380702,-725861.6359068914,-647398.2509849371,-650770.7715953317,-614462.1508672418,-581767.1813687303,0.352,-0.25,0.908,192.0,0.0,0.0,0.0,0.0,0.0,0.0,0.0,0.0,0.0,1747538296.6407633,0.0, 2025-05-17 20:18:16.640
81.0,-727574.1371600792,-531742.3679521523,-727027.592304658,-725989.2196642422,-647433.1197062874,-650829.7802006936,-614559.5150660891,-581857.6612302853,0.352,-0.25,0.908,192.0,0.0,0.0,0.0,0.0,0.0,0.0,0.0,0.0,0.0,1747538296.6407976,0.0, 2025-05-17 20:18:16.640
82.0,-727464.6136122482,-531687.8296956813,-726980.3854203684,-726037.4994322658,-647394.8535197799,-650820.124247089,-614584.9960547681,-581875.7214398052,0.352,-0.25,0.908,192.0,0.0,0.0,0.0,0.0,0.0,0.0,0.0,0.0,0.0,1747538296.6408312,0.0, 2025-05-17 20:18:16.640
83.0,-727426.8838676077,-531564.0904383768,-726889.7267448577,-726034.0125601307,-647307.4134954708,-650760.7580138157,-614558.9786242221,-581844.0713696565,0.352,-0.25,0.908,192.0,0.0,0.0,0.0,0.0,0.0,0.0,0.0,0.0,0.0,1747538296.640865,0.0, 2025-05-17 20:18:16.640
84.0,-727425.0957280512,-531488.6309490956,-726833.4897558081,-726081.8452932651,-647271.6507043423,-650753.4266416343,-614587.3206361915,-581865.2608234001,0.352,-0.25,0.908,192.0,0.0,0.0,0.0,0.0,0.0,0.0,0.0,0.0,0.0,1747538296.6408985,0.0, 2025-05-17 20:18:16.640
85.0,-727382.2697856749,-531501.6843678575,-726809.9757206412,-726213.2735506623,-647314.9236816077,-650820.3924680224,-614693.4467188653,-581963.3402780701,0.352,-0.25,0.908,192.0,0.0,0.0,0.0,0.0,0.0,0.0,0.0,0.0,0.0,1747538296.6409316,0.0, 2025-05-17 20:18:16.640
86.0,-727285.7102496279,-531453.4045998341,-726762.590022396,-726268.6164699337,-647287.0287045275,-650818.1572935769,-614726.2590797257,-581990.3411853721,0.352,-0.25,0.908,192.0,0.0,0.0,0.0,0.0,0.0,0.0,0.0,0.0,0.0,1747538296.6409695,0.0, 2025-05-17 20:18:16.640
87.0,-727258.3517144147,-531341.0200287128,-726694.7301262296,-726273.3550397581,-647210.4963315126,-650769.2516767087,-614711.5069283851,-581969.5093595397,0.35,-0.252,0.906,192.0,10.0,240.0,248.0,32.0,28.0,80.0,0.0,0.0,0.0,1747538296.6410036,0.0, 2025-05-17 20:18:16.641
88.0,-727230.9037722235,-531252.0600857807,-726626.3337881963,-726395.2167505284,-647160.4284239326,-650748.3304438986,-614723.7556843467,-581976.3042898541,0.35,-0.252,0.906,192.0,0.0,0.0,0.0,0.0,0.0,0.0,0.0,0.0,0.0,1747538296.6410391,0.0, 2025-05-17 20:18:16.641
89.0,-727140.7815385797,-531257.2456904943,-726590.1239621787,-726869.5207678701,-647193.5984127043,-650806.0873515711,-614820.3152203936,-582063.2972792742,0.35,-0.252,0.906,192.0,0.0,0.0,0.0,0.0,0.0,0.0,0.0,0.0,0.0,1747538296.641073,0.0, 2025-05-17 20:18:16.641
90.0,-727041.5397931981,-531278.5245512157,-726563.4806827881,-726865.9444887573,-647226.9472154316,-650862.592561554,-614917.2323843518,-582149.9326407829,0.35,-0.252,0.906,192.0,0.0,0.0,0.0,0.0,0.0,0.0,0.0,0.0,0.0,1747538296.6411066,0.0, 2025-05-17 20:18:16.641
91.0,-727050.122863069,-531226.6685040795,-726506.7072518716,-726642.3376372263,-647203.5225872425,-650865.0065499552,-614958.2701871718,-582182.387373732,0.35,-0.252,0.906,192.0,0.0,0.0,0.0,0.0,0.0,0.0,0.0,0.0,0.0,1747538296.6411407,0.0, 2025-05-17 20:18:16.641
92.0,-727042.5232699541,-531137.9767820808,-726458.6062978037,-726392.445134216,-647152.4712029066,-650840.2408170988,-614968.9990245103,-582186.2318737784,0.35,-0.252,0.906,192.0,0.0,0.0,0.0,0.0,0.0,0.0,0.0,0.0,0.0,1747538296.6411743,0.0, 2025-05-17 20:18:16.641
93.0,-727057.4542352504,-531158.898014891,-726394.5909016838,-726246.7117603674,-647206.9200523997,-650918.9189575814,-615087.19504919,-582295.0401657867,0.35,-0.252,0.906,192.0,0.0,0.0,0.0,0.0,0.0,0.0,0.0,0.0,0.0,1747538296.6412356,0.0, 2025-05-17 20:18:16.641
94.0,-726933.6255709679,-531197.4324223319,-726354.0895407307,-726097.8491422951,-647260.6536460703,-650994.8254817517,-615203.5135273354,-582401.434469394,0.35,-0.252,0.906,192.0,0.0,0.0,0.0,0.0,0.0,0.0,0.0,0.0,0.0,1747538296.6412778,0.0, 2025-05-17 20:18:16.641
95.0,-726848.5101280821,-531160.0603056026,-726306.7038424854,-725877.4609419657,-647240.4476690827,-650997.7759120198,-615244.3725161997,-582433.3527604763,0.35,-0.252,0.906,192.0,0.0,0.0,0.0,0.0,0.0,0.0,0.0,0.0,0.0,1747538296.6413145,0.0, 2025-05-17 20:18:16.641
96.0,-726846.3643606144,-531076.375374362,-726218.5485623537,-725613.5315434375,-647189.5750987023,-650973.1889931189,-615255.9954233165,-582436.8396326113,0.35,-0.252,0.906,192.0,0.0,0.0,0.0,0.0,0.0,0.0,0.0,0.0,0.0,1747538296.6413567,0.0, 2025-05-17 20:18:16.641
97.0,-726836.082558165,-531069.6698510253,-726206.0315854588,-725136.18768885,-647216.4865990266,-651024.6874123439,-615343.7036685591,-582519.1834591846,0.362,-0.252,0.908,192.0,11.0,80.0,248.0,32.0,28.0,96.0,0.0,0.0,0.0,1747538296.6413949,0.0, 2025-05-17 20:18:16.641
98.0,-726711.7174520156,-531083.7961535212,-726186.3620503381,-724856.8802901364,-647247.2425993971,-651079.4044827706,-615435.1670068701,-582603.3154253144,0.362,-0.252,0.908,192.0,0.0,0.0,0.0,0.0,0.0,0.0,0.0,0.0,0.0,1747538296.6414316,0.0, 2025-05-17 20:18:16.641
99.0,-726659.4143699902,-531010.2142107743,-726141.390340494,-724881.109581126,-647197.6217267063,-651057.67858716,-615449.1144954104,-582608.1434021167,0.362,-0.252,0.908,192.0,0.0,0.0,0.0,0.0,0.0,0.0,0.0,0.0,0.0,1747538296.641466,0.0, 2025-05-17 20:18:16.641
100.0,-726630.3571021983,-530895.1474303183,-726042.2380020902,-724890.1396858859,-647119.3906211127,-651008.3259354027,-615436.1504836262,-582585.7916576614,0.362,-0.252,0.908,192.0,0.0,0.0,0.0,0.0,0.0,0.0,0.0,0.0,0.0,1747538296.6415,0.0, 2025-05-17 20:18:16.641
101.0,-726624.992683529,-530834.4400923777,-726000.3061294921,-724947.5389656471,-647094.6248882562,-651009.9352610034,-615475.1319259562,-582616.1900301207,0.362,-0.252,0.908,192.0,0.0,0.0,0.0,0.0,0.0,0.0,0.0,0.0,0.0,1747538296.6415348,0.0, 2025-05-17 20:18:16.641
102.0,-726527.986112593,-530840.4303598917,-725956.6755243153,-725066.0926182381,-647124.755039782,-651064.8311453856,-615567.3105200899,-582700.2325892727,0.362,-0.252,0.908,192.0,0.0,0.0,0.0,0.0,0.0,0.0,0.0,0.0,0.0,1747538296.6415703,0.0, 2025-05-17 20:18:16.641
103.0,-726406.3926227561,-530787.2332080881,-725918.8563726969,-725113.1206885721,-647087.204109097,-651054.7281568919,-615593.1491366803,-582717.1305080808,0.362,-0.252,0.908,192.0,0.0,0.0,0.0,0.0,0.0,0.0,0.0,0.0,0.0,1747538296.641606,0.0, 2025-05-17 20:18:16.641
104.0,-726388.2430062584,-530689.0643464404,-725855.6456393774,-725130.644456225,-647021.4899803984,-651014.7632378058,-615589.7516715231,-582705.6864149197,0.362,-0.252,0.908,192.0,0.0,0.0,0.0,0.0,0.0,0.0,0.0,0.0,0.0,1747538296.6416414,0.0, 2025-05-17 20:18:16.641
105.0,-726389.1370760367,-530618.2540200059,-725785.6399757434,-725183.1263522061,-646988.8564334937,-651008.3259354027,-615618.9877532707,-582728.3957872863,0.362,-0.252,0.908,192.0,0.0,0.0,0.0,0.0,0.0,0.0,0.0,0.0,0.0,1747538296.6416774,0.0, 2025-05-17 20:18:16.641
106.0,-726337.4598428559,-530624.24428752,-725738.4330914537,-725308.4749351115,-647024.4404106665,-651071.179040811,-615717.335428874,-582819.2332767526,0.362,-0.252,0.908,192.0,0.0,0.0,0.0,0.0,0.0,0.0,0.0,0.0,0.0,1747538296.641713,0.0, 2025-05-17 20:18:16.641
107.0,-726221.7672135553,-530573.3717171397,-725698.9152072568,-725443.0324367324,-646993.0585614513,-651067.5133547203,-615748.4490571558,-582841.9426491193,0.366,-0.252,0.916,192.0,11.0,112.0,248.0,32.0,28.0,160.0,0.0,0.0,0.0,1747538296.641749,0.0, 2025-05-17 20:18:16.641
108.0,-726204.0646319467,-530474.0405647804,-725637.6714274492,-725819.3464063819,-646928.0596885753,-651029.3365751907,-615746.5715106216,-582830.4091489803,0.366,-0.252,0.916,192.0,0.0,0.0,0.0,0.0,0.0,0.0,0.0,0.0,0.0,1747538296.641828,0.0, 2025-05-17 20:18:16.641
109.0,-726207.6409110596,-530413.690854751,-725561.1390544343,-725777.8615686729,-646906.691420876,-651031.661156614,-615788.1457553084,-582862.059219129,0.366,-0.252,0.916,192.0,0.0,0.0,0.0,0.0,0.0,0.0,0.0,0.0,0.0,1747538296.641864,0.0, 2025-05-17 20:18:16.641
109.0,-726207.6409110596,-530413.690854751,-725561.1390544343,-725777.8615686729,-646906.691420876,-651031.661156614,-615788.1457553084,-582862.059219129,0.366,-0.252,0.916,192.0,0.0,0.0,0.0,0.0,0.0,0.0,0.0,0.0,0.0,1747538296.641898,0.0, 2025-05-17 20:18:16.641
110.0,-726172.5933757536,-530476.8121810928,-725552.0195426964,-725662.0795323944,-646993.9526312295,-651139.9330067555,-615936.4719315139,-583003.59046502,0.366,-0.252,0.916,192.0,0.0,0.0,0.0,0.0,0.0,0.0,0.0,0.0,0.0,1747538296.6419332,0.0, 2025-05-17 20:18:16.641
111.0,-726033.2973043082,-530486.7363556309,-725526.6279609952,-725478.705820883,-647011.8340267937,-651181.4178444645,-616016.2229557304,-583077.1724077669,0.366,-0.252,0.916,192.0,0.0,0.0,0.0,0.0,0.0,0.0,0.0,0.0,0.0,1747538296.641967,0.0, 2025-05-17 20:18:16.641
112.0,-726023.9095716369,-530443.9104132546,-725451.1684717141,-725261.2680508218,-646993.5950033183,-651187.7657398899,-616062.0887353526,-583113.7398616958,0.366,-0.252,0.916,192.0,0.0,0.0,0.0,0.0,0.0,0.0,0.0,0.0,0.0,1747538296.6420004,0.0, 2025-05-17 20:18:16.642
113.0,-726023.4625367478,-530367.4674472174,-725400.5641222673,-725024.8760014625,-646953.71949121,-651172.5665536603,-616084.3510728301,-583127.3297223246,0.366,-0.252,0.916,192.0,0.0,0.0,0.0,0.0,0.0,0.0,0.0,0.0,0.0,1747538296.6420395,0.0, 2025-05-17 20:18:16.642
114.0,-725988.4150014418,-530394.3789475416,-725340.8402610827,-724878.5167787692,-647007.0954569692,-651249.0989266753,-616200.8483649312,-583236.2274213108,0.366,-0.252,0.916,192.0,0.0,0.0,0.0,0.0,0.0,0.0,0.0,0.0,0.0,1747538296.642074,0.0, 2025-05-17 20:18:16.642
115.0,-725846.5261276396,-530422.2739246219,-725299.0872024402,-724662.9565552422,-647046.702748144,-651309.0910087933,-616302.951133603,-583330.3729689566,0.366,-0.252,0.916,192.0,0.0,0.0,0.0,0.0,0.0,0.0,0.0,0.0,0.0,1747538296.642109,0.0, 2025-05-17 20:18:16.642
116.0,-725766.2386615562,-530355.3080982338,-725271.6392602491,-724055.1679200134,-647001.7310383,-651287.5439271383,-616317.7926919213,-583338.4195969605,0.366,-0.252,0.916,192.0,0.0,0.0,0.0,0.0,0.0,0.0,0.0,0.0,0.0,1747538296.642145,0.0, 2025-05-17 20:18:16.642
117.0,-725738.3436844759,-530239.9730968444,-725227.3828062275,-723808.851696116,-646924.0363745734,-651237.5654265363,-616302.1464708026,-583315.8890385496,0.366,-0.252,0.912,192.0,11.0,112.0,248.0,32.0,28.0,128.0,0.0,0.0,0.0,1747538296.6421788,0.0, 2025-05-17 20:18:16.642
118.0,-725760.6954289313,-530213.2404104758,-725171.3246311337,-723907.1993717194,-646936.9109793796,-651274.9375432655,-616375.3707856382,-583382.4078300486,0.366,-0.252,0.912,192.0,0.0,0.0,0.0,0.0,0.0,0.0,0.0,0.0,0.0,1747538296.6422153,0.0, 2025-05-17 20:18:16.642
119.0,-725647.4167880317,-530195.7166428228,-725118.663921197,-724006.6199310565,-646944.242351561,-651307.6604971482,-616446.0917050948,-583444.8139005678,0.366,-0.252,0.912,192.0,0.0,0.0,0.0,0.0,0.0,0.0,0.0,0.0,0.0,1747538296.6422503,0.0, 2025-05-17 20:18:16.642
120.0,-725567.1293219483,-530104.9685603343,-725053.2180134319,-724026.7365010664,-646877.5447461063,-651267.0697292173,-616441.6213562038,-583432.2969236728,0.366,-0.252,0.912,192.0,0.0,0.0,0.0,0.0,0.0,0.0,0.0,0.0,0.0,1747538296.642285,0.0, 2025-05-17 20:18:16.642
121.0,-725522.0682051263,-529971.3945354694,-725020.4056525715,-724010.2856171472,-646783.1309775271,-651198.7627981618,-616408.2725534764,-583392.5108185423,0.366,-0.252,0.912,192.0,0.0,0.0,0.0,0.0,0.0,0.0,0.0,0.0,0.0,1747538296.6424,0.0, 2025-05-17 20:18:16.642
122.0,-725549.6949612731,-529931.6978373168,-724933.1444422179,-724099.5137810129,-646783.3097914828,-651223.5285310184,-616470.8574379513,-583448.211365725,0.366,-0.252,0.912,192.0,0.0,0.0,0.0,0.0,0.0,0.0,0.0,0.0,0.0,1747538296.642437,0.0, 2025-05-17 20:18:16.642
123.0,-725469.4074951897,-529928.2109651817,-724887.9939184182,-724215.0275963579,-646806.0191638493,-651274.1328804651,-616558.9233111052,-583528.8564597197,0.366,-0.252,0.912,192.0,0.0,0.0,0.0,0.0,0.0,0.0,0.0,0.0,0.0,1747538296.6424716,0.0, 2025-05-17 20:18:16.642
124.0,-725346.204679752,-529859.6358131928,-724845.7938248866,-724250.5221665528,-646756.5771051141,-651252.4963918325,-616571.2614740445,-583535.3831691007,0.366,-0.252,0.912,192.0,0.0,0.0,0.0,0.0,0.0,0.0,0.0,0.0,0.0,1747538296.6425073,0.0, 2025-05-17 20:18:16.642
125.0,-725312.3194351578,-529740.4563117572,-724758.085579644,-724251.5950502867,-646672.7133599179,-651198.1369493172,-616550.6978691457,-583507.5775989983,0.366,-0.252,0.912,192.0,0.0,0.0,0.0,0.0,0.0,0.0,0.0,0.0,0.0,1747538296.6425416,0.0, 2025-05-17 20:18:16.642
126.0,-725336.5487261473,-529683.6828808407,-724708.1964860198,-724342.8795746422,-646656.2624759987,-651208.3293447888,-616596.2060208566,-583545.8437855057,0.366,-0.252,0.912,192.0,0.0,0.0,0.0,0.0,0.0,0.0,0.0,0.0,0.0,1747538296.6425767,0.0, 2025-05-17 20:18:16.642
127.0,-725317.8626677827,-529674.3845551473,-724670.6455553347,-724779.096219432,-646679.9553251214,-651258.218438413,-616682.6625684098,-583626.3100655449,0.362,-0.248,0.914,192.0,11.0,80.0,248.0,64.0,28.0,144.0,0.0,0.0,0.0,1747538296.6426113,0.0, 2025-05-17 20:18:16.642
128.0,-725151.0292471682,-529651.1387409137,-724634.9721711841,-724930.0151979942,-646669.6735226719,-651273.8646595317,-616735.8597202135,-583671.5499963225,0.362,-0.248,0.914,192.0,0.0,0.0,0.0,0.0,0.0,0.0,0.0,0.0,0.0,1747538296.6426525,0.0, 2025-05-17 20:18:16.642
129.0,-725093.3617464736,-529575.500437677,-724567.9169378182,-724685.1294857418,-646615.9399290014,-651245.9696824515,-616745.5156738181,-583672.1758451671,0.362,-0.248,0.914,192.0,0.0,0.0,0.0,0.0,0.0,0.0,0.0,0.0,0.0,1747538296.6426885,0.0, 2025-05-17 20:18:16.642
130.0,-725127.7834329348,-529543.0457047279,-724510.2494371235,-724489.1493903577,-646618.0856964691,-651270.5566013523,-616811.587430428,-583730.2009737731,0.362,-0.248,0.914,192.0,0.0,0.0,0.0,0.0,0.0,0.0,0.0,0.0,0.0,1747538296.642723,0.0, 2025-05-17 20:18:16.642
131.0,-725097.2062465199,-529603.7530426685,-724491.4739717811,-724373.2779471014,-646702.0388486432,-651375.7886142479,-616961.2547113007,-583871.7322196641,0.362,-0.248,0.914,192.0,0.0,0.0,0.0,0.0,0.0,0.0,0.0,0.0,0.0,1747538296.642758,0.0, 2025-05-17 20:18:16.642
132.0,-724977.5797101951,-529600.2661705335,-724459.8239016323,-724181.0529447858,-646709.4596278024,-651406.0081727515,-617032.3332586687,-583934.5853250725,0.362,-0.248,0.914,192.0,0.0,0.0,0.0,0.0,0.0,0.0,0.0,0.0,0.0,1747538296.6427927,0.0, 2025-05-17 20:18:16.642
133.0,-724957.1949192518,-529516.9388672041,-724373.9037959462,-723928.9252673299,-646654.3849294645,-651378.2026026491,-617041.3633634285,-583933.6018483165,0.362,-0.248,0.914,192.0,0.0,0.0,0.0,0.0,0.0,0.0,0.0,0.0,0.0,1747538296.6428287,0.0, 2025-05-17 20:18:16.642
134.0,-724958.8042448526,-529463.5629014448,-724288.0730972377,-723683.4137062328,-646637.2187897228,-651388.3055911429,-617088.5702477181,-583972.1362557574,0.362,-0.248,0.914,192.0,0.0,0.0,0.0,0.0,0.0,0.0,0.0,0.0,0.0,1747538296.6428633,0.0, 2025-05-17 20:18:16.642
135.0,-724875.2981275676,-529496.1964483495,-724285.8379227922,-723207.5003632904,-646693.1875578389,-651467.8778014038,-617205.5145747083,-584082.9115012779,0.362,-0.248,0.914,192.0,0.0,0.0,0.0,0.0,0.0,0.0,0.0,0.0,0.0,1747538296.6428971,0.0, 2025-05-17 20:18:16.642
136.0,-724749.8601376844,-529470.6260526926,-724237.3793408131,-722970.4824650863,-646685.0515228572,-651482.7193597221,-617257.8176567338,-584128.3302460111,0.362,-0.248,0.914,192.0,0.0,0.0,0.0,0.0,0.0,0.0,0.0,0.0,0.0,1747538296.6430051,0.0, 2025-05-17 20:18:16.643
137.0,-724705.4248697072,-529355.6486792146,-724201.9741775959,-722964.671011528,-646601.6348125499,-651426.8399985839,-617235.9129471675,-584099.4517921748,0.36,-0.248,0.914,192.0,11.0,64.0,248.0,64.0,28.0,144.0,0.0,0.0,0.0,1747538296.6430411,0.0, 2025-05-17 20:18:16.643
138.0,-724681.0167647621,-529247.1086081397,-724138.6740372985,-722979.7807907797,-646531.8973698494,-651384.9081259856,-617229.0286098754,-584084.87845479,0.36,-0.248,0.914,192.0,0.0,0.0,0.0,0.0,0.0,0.0,0.0,0.0,0.0,1747538296.6430783,0.0, 2025-05-17 20:18:16.643
139.0,-724725.0944048279,-529248.0920848957,-724099.424374035,-723109.5103155983,-646573.5610215141,-651449.1917430392,-617332.4724832145,-584180.9909559478,0.36,-0.248,0.914,192.0,0.0,0.0,0.0,0.0,0.0,0.0,0.0,0.0,0.0,1747538296.643114,0.0, 2025-05-17 20:18:16.643
140.0,-724580.1656937797,-529221.8958403941,-724056.2408037473,-723193.9105026616,-646569.8953354234,-651470.1129758493,-617389.5141350644,-584231.1482705055,0.36,-0.248,0.914,192.0,0.0,0.0,0.0,0.0,0.0,0.0,0.0,0.0,0.0,1747538296.643149,0.0, 2025-05-17 20:18:16.643
141.0,-724474.486645995,-529134.2770021292,-723978.4567330428,-723210.0037586694,-646502.4824741462,-651429.8798358297,-617382.9874256834,-584216.2173052094,0.36,-0.248,0.914,192.0,0.0,0.0,0.0,0.0,0.0,0.0,0.0,0.0,0.0,1747538296.8855383,0.0, 2025-05-17 20:18:16.885
142.0,-724445.0717502919,-529018.2267449173,-723931.3392557311,-723209.3779098246,-646422.6420429519,-651377.6661607822,-617364.4801812745,-584191.362165375,0.36,-0.248,0.914,192.0,0.0,0.0,0.0,0.0,0.0,0.0,0.0,0.0,0.0,1747538296.88562,0.0, 2025-05-17 20:18:16.885
143.0,-724480.7451344425,-528989.4376980589,-723833.2598010611,-723312.3747482747,-646433.2814733126,-651412.5348821324,-617436.7210193541,-584259.1326545635,0.36,-0.248,0.914,192.0,0.0,0.0,0.0,0.0,0.0,0.0,0.0,0.0,0.0,1747538296.8856728,0.0, 2025-05-17 20:18:16.885
144.0,-724373.6355750127,-528967.1753605814,-723799.6427774004,-723410.8118308559,-646438.4670780263,-651443.2908825029,-617504.5809155203,-584320.8234692602,0.36,-0.248,0.914,192.0,0.0,0.0,0.0,0.0,0.0,0.0,0.0,0.0,0.0,1747538296.8857129,0.0, 2025-05-17 20:18:16.885
145.0,-724253.4725968209,-528888.2289991652,-723744.0316371956,-723662.5818804004,-646378.9220307973,-651411.9984402655,-617508.246601611,-584319.1247366816,0.36,-0.248,0.914,192.0,0.0,0.0,0.0,0.0,0.0,0.0,0.0,0.0,0.0,1747538296.8857365,0.0, 2025-05-17 20:18:16.885
146.0,-724250.7009805085,-528801.2360097452,-723679.0327643196,-723933.4850231988,-646327.4236115722,-651387.4115213647,-617517.4555203266,-584322.87982975,0.36,-0.248,0.914,192.0,0.0,0.0,0.0,0.0,0.0,0.0,0.0,0.0,0.0,1747538296.885764,0.0, 2025-05-17 20:18:16.885
147.0,-724312.0341672938,-528811.1601842833,-723665.1746827572,-723824.6767311903,-646376.6868563518,-651459.741766422,-617630.1977193592,-584427.7542147344,0.36,-0.246,0.91,192.0,11.0,64.0,248.0,80.0,28.0,112.0,0.0,0.0,0.0,1747538296.8857932,0.0, 2025-05-17 20:18:16.885
148.0,-724241.4920617929,-528863.6420802644,-723645.9521825257,-723698.2552645511,-646451.6993107437,-651558.0000350475,-617771.9971861836,-584559.2718791094,0.36,-0.246,0.91,192.0,0.0,0.0,0.0,0.0,0.0,0.0,0.0,0.0,0.0,1747538296.8858178,0.0, 2025-05-17 20:18:16.885
149.0,-724091.8247809202,-528844.6878009663,-723592.0397748995,-723488.774715516,-646441.7751362056,-651574.272105011,-617826.0884077655,-584604.1541819756,0.36,-0.246,0.91,192.0,0.0,0.0,0.0,0.0,0.0,0.0,0.0,0.0,0.0,1747538296.8858428,0.0, 2025-05-17 20:18:16.885
150.0,-724044.886117564,-528747.1447881634,-723517.2061344632,-723218.9444564516,-646368.55082137,-651529.7474300561,-617814.0184657596,-584585.2893096554,0.36,-0.246,0.91,192.0,0.0,0.0,0.0,0.0,0.0,0.0,0.0,0.0,0.0,1747538296.8858783,0.0, 2025-05-17 20:18:16.885
151.0,-724092.2718158093,-528725.329485575,-723449.256831319,-723034.4978612063,-646381.067798265,-651567.7453956301,-617888.5838852625,-584652.7021709325,0.36,-0.246,0.91,192.0,0.0,0.0,0.0,0.0,0.0,0.0,0.0,0.0,0.0,1747538296.8861096,0.0, 2025-05-17 20:18:16.886
152.0,-724051.3234199672,-528769.1389047074,-723406.9673308096,-722903.0696038092,-646449.2853223427,-651660.9968734976,-618020.1909566154,-584774.9215096142,0.36,-0.246,0.91,192.0,0.0,0.0,0.0,0.0,0.0,0.0,0.0,0.0,0.0,1747538296.886145,0.0, 2025-05-17 20:18:16.886
153.0,-723927.7629766183,-528767.7083930622,-723379.251167685,-722536.5904017199,-646458.9412759473,-651695.6867808923,-618091.7165388723,-584836.9699522222,0.36,-0.246,0.91,192.0,0.0,0.0,0.0,0.0,0.0,0.0,0.0,0.0,0.0,1747538296.8861797,0.0, 2025-05-17 20:18:16.886
154.0,-723905.0536042516,-528686.8844851118,-723373.6185280823,-721982.9823950508,-646405.6547171659,-651668.8646875459,-618100.2102017654,-584838.4898708451,0.36,-0.246,0.91,192.0,0.0,0.0,0.0,0.0,0.0,0.0,0.0,0.0,0.0,1747538296.8862176,0.0, 2025-05-17 20:18:16.886
155.0,-723867.6814875223,-528587.6427397302,-723291.6323294202,-721936.0437316947,-646344.3215303805,-651635.2476638851,-618103.0712250556,-584834.9135917323,0.36,-0.246,0.91,192.0,0.0,0.0,0.0,0.0,0.0,0.0,0.0,0.0,0.0,1747538296.8862553,0.0, 2025-05-17 20:18:16.886
156.0,-723784.7118121042,-528596.3152165789,-723239.8656892617,-722065.5944425577,-646381.2466122207,-651695.1503390253,-618201.7765285703,-584926.10870911,0.36,-0.246,0.91,192.0,0.0,0.0,0.0,0.0,0.0,0.0,0.0,0.0,0.0,1747538296.8862936,0.0, 2025-05-17 20:18:16.886
157.0,-723711.3086833131,-528551.0752858013,-723199.6325492421,-722128.894582855,-646358.9842747431,-651698.816025116,-618242.0096685898,-584958.0270001921,0.36,-0.252,0.91,192.0,11.0,64.0,248.0,32.0,28.0,112.0,0.0,0.0,0.0,1747538296.8863175,0.0, 2025-05-17 20:18:16.886
158.0,-723672.0590200495,-528425.0114470734,-723120.4179668925,-722122.3678734741,-646267.8785643433,-651635.784105752,-618215.1875752434,-584922.7112439527,0.36,-0.252,0.91,192.0,0.0,0.0,0.0,0.0,0.0,0.0,0.0,0.0,0.0,1747538296.886342,0.0, 2025-05-17 20:18:16.886
159.0,-723644.5216708806,-528327.6472482261,-723055.3296870387,-722146.7759784193,-646207.9758892031,-651603.0611518695,-618219.4791101789,-584918.1514880838,0.36,-0.252,0.91,192.0,0.0,0.0,0.0,0.0,0.0,0.0,0.0,0.0,0.0,1747538296.8863685,0.0, 2025-05-17 20:18:16.886
160.0,-723586.4965422746,-528336.0515041413,-723004.188895725,-722275.969061371,-646242.9340175312,-651662.6061990984,-618319.6149253387,-585013.0122915521,0.36,-0.252,0.91,192.0,0.0,0.0,0.0,0.0,0.0,0.0,0.0,0.0,0.0,1747538296.8863907,0.0, 2025-05-17 20:18:16.886
161.0,-723495.7484597861,-528317.2760387989,-722962.7934649937,-722363.3196787024,-646242.7552035756,-651687.5507459105,-618382.5574377248,-585068.7128387347,0.36,-0.252,0.91,192.0,0.0,0.0,0.0,0.0,0.0,0.0,0.0,0.0,0.0,1747538296.8864183,0.0, 2025-05-17 20:18:16.886
162.0,-723474.0225641755,-528215.7097119939,-722903.6954526539,-722379.0553067989,-646175.8787841653,-651646.5129430906,-618378.0870888338,-585056.6428967289,0.36,-0.252,0.91,192.0,0.0,0.0,0.0,0.0,0.0,0.0,0.0,0.0,0.0,1747538296.8864405,0.0, 2025-05-17 20:18:16.886
163.0,-723426.1004240633,-528086.3378150866,-722847.9949054712,-722371.6345276397,-646085.5777365658,-651584.3750935048,-618348.5827861527,-585020.0754428001,0.36,-0.252,0.91,192.0,0.0,0.0,0.0,0.0,0.0,0.0,0.0,0.0,0.0,1747538296.8864615,0.0, 2025-05-17 20:18:16.886
164.0,-723458.5551570124,-528079.7216987278,-722782.101962817,-722731.050578481,-646115.8867020472,-651642.6684430443,-618443.6224035767,-585106.8002112866,0.36,-0.252,0.91,192.0,0.0,0.0,0.0,0.0,0.0,0.0,0.0,0.0,0.0,1747538296.8864834,0.0, 2025-05-17 20:18:16.886
165.0,-723352.5184813164,-528110.2094781649,-722761.2701369846,-723087.7844199878,-646164.7923189155,-651717.1444555693,-618558.2421491435,-585212.7474800048,0.36,-0.252,0.91,192.0,0.0,0.0,0.0,0.0,0.0,0.0,0.0,0.0,0.0,1747538296.8865056,0.0, 2025-05-17 20:18:16.886
166.0,-723242.190270685,-528075.2513498368,-722723.8086132775,-722904.2318945208,-646145.3910047283,-651721.0783625935,-618598.7435100966,-585244.7551780648,0.36,-0.252,0.91,192.0,0.0,0.0,0.0,0.0,0.0,0.0,0.0,0.0,0.0,1747538296.8865578,0.0, 2025-05-17 20:18:16.886
167.0,-723274.8238175898,-528030.2796399927,-722654.3393915105,-722693.1420198849,-646133.9469115671,-651734.310595311,-618648.1855688316,-585285.8823878625,0.366,-0.248,0.914,192.0,11.0,112.0,248.0,64.0,28.0,144.0,0.0,0.0,0.0,1747538296.88658,0.0, 2025-05-17 20:18:16.886
168.0,-723253.0085150014,-528025.2728492348,-722602.3045304185,-722519.6924829117,-646159.7855281575,-651784.2890959131,-618737.4137326973,-585367.8685865246,0.366,-0.248,0.914,192.0,0.0,0.0,0.0,0.0,0.0,0.0,0.0,0.0,0.0,1747538296.8866029,0.0, 2025-05-17 20:18:16.886
169.0,-723111.0302342213,-528055.2241868048,-722597.8341815275,-722362.8726438133,-646203.4161333343,-651850.5396664786,-618844.1656642158,-585468.0938086621,0.366,-0.248,0.914,192.0,0.0,0.0,0.0,0.0,0.0,0.0,0.0,0.0,0.0,1747538296.8866243,0.0, 2025-05-17 20:18:16.886
170.0,-723024.3054657347,-528050.5750239581,-722530.1530993168,-722171.2734903423,-646211.8203892494,-651881.2062598714,-618913.6348859828,-585530.0528442923,0.366,-0.248,0.914,192.0,0.0,0.0,0.0,0.0,0.0,0.0,0.0,0.0,0.0,1747538296.886646,0.0, 2025-05-17 20:18:16.886
171.0,-723001.5066863903,-527951.60149951,-722459.3427728823,-721904.6618824794,-646141.457097704,-651838.0226895837,-618905.588257979,-585515.3900999296,0.366,-0.248,0.914,192.0,0.0,0.0,0.0,0.0,0.0,0.0,0.0,0.0,0.0,1747538296.8866675,0.0, 2025-05-17 20:18:16.886
172.0,-723057.207233573,-527935.7764644356,-722399.7977256534,-721543.7259130152,-646163.9876561151,-651886.7494924963,-618993.4753171772,-585594.0682404123,0.366,-0.248,0.914,192.0,0.0,0.0,0.0,0.0,0.0,0.0,0.0,0.0,0.0,1747538296.8866918,0.0, 2025-05-17 20:18:16.886
173.0,-722994.3541281646,-527951.2438715987,-722395.7744116514,-721113.2313148059,-646205.8301217353,-651953.3576909731,-619100.2272486958,-585690.9854043705,0.366,-0.248,0.914,192.0,0.0,0.0,0.0,0.0,0.0,0.0,0.0,0.0,0.0,1747538296.8867145,0.0, 2025-05-17 20:18:16.886
174.0,-722857.8296730316,-527887.4966964122,-722339.9844574911,-721090.4325354615,-646157.9973886011,-651931.5423883847,-619115.605248881,-585698.7638114409,0.366,-0.248,0.914,192.0,0.0,0.0,0.0,0.0,0.0,0.0,0.0,0.0,0.0,1747538296.8867357,0.0, 2025-05-17 20:18:16.886
175.0,-722820.6363702579,-527767.601939154,-722285.5356079979,-721088.8232098607,-646072.6137247818,-651873.6066667566,-619093.611132337,-585669.6171366712,0.366,-0.248,0.914,192.0,0.0,0.0,0.0,0.0,0.0,0.0,0.0,0.0,0.0,1747538296.8867571,0.0, 2025-05-17 20:18:16.886
176.0,-722860.0648474771,-527725.3124386445,-722208.466793116,-721179.3030714159,-646071.0938061588,-651897.9253647239,-619155.5701679671,-585723.9765791865,0.366,-0.248,0.914,192.0,0.0,0.0,0.0,0.0,0.0,0.0,0.0,0.0,0.0,1747538296.8867788,0.0, 2025-05-17 20:18:16.886
177.0,-722820.9939981692,-527703.4971360561,-722181.1976648805,-721277.740153997,-646080.6603527857,-651931.7212023403,-619229.2415176919,-585787.723754373,0.364,-0.248,0.904,192.0,11.0,96.0,248.0,64.0,28.0,64.0,0.0,0.0,0.0,1747538296.8868,0.0, 2025-05-17 20:18:16.886
178.0,-722636.3685889684,-527652.9821935871,-722126.8382223652,-721328.3445034438,-646045.0763756129,-651920.5453301127,-619255.16954126,-585805.5157429595,0.364,-0.248,0.904,192.0,0.0,0.0,0.0,0.0,0.0,0.0,0.0,0.0,0.0,1747538296.8868234,0.0, 2025-05-17 20:18:16.886
179.0,-722566.9887741791,-527544.8891574013,-722047.2660121043,-721330.6690848672,-645963.3583978842,-651865.0235968857,-619234.8741572946,-585777.7101728572,0.364,-0.248,0.904,192.0,0.0,0.0,0.0,0.0,0.0,0.0,0.0,0.0,0.0,1747538296.8868463,0.0, 2025-05-17 20:18:16.886
180.0,-722584.6913557877,-527473.1847611887,-722018.2087443124,-721379.8429226689,-645930.8142579573,-651857.6922247043,-619264.6466809091,-585800.2407312681,0.364,-0.248,0.904,192.0,0.0,0.0,0.0,0.0,0.0,0.0,0.0,0.0,0.0,1747538296.886908,0.0, 2025-05-17 20:18:16.886
181.0,-722627.606705142,-527476.4034123902,-721954.9980109928,-721514.9368661568,-645971.3156189104,-651922.9593185139,-619369.699879849,-585896.3532324259,0.364,-0.248,0.904,192.0,0.0,0.0,0.0,0.0,0.0,0.0,0.0,0.0,0.0,1747538296.886942,0.0, 2025-05-17 20:18:16.886
182.0,-722457.4652263481,-527430.7164467236,-721900.6385684775,-721695.5389613556,-645944.3147116083,-651921.6182138465,-619406.3567407557,-585923.1753257723,0.364,-0.248,0.904,192.0,0.0,0.0,0.0,0.0,0.0,0.0,0.0,0.0,0.0,1747538296.886976,0.0, 2025-05-17 20:18:16.886
183.0,-722354.9154227872,-527345.2433759265,-721853.0740562766,-722060.4982448219,-645874.1302340187,-651882.5473645387,-619401.7969848868,-585909.7642790991,0.364,-0.248,0.904,192.0,0.0,0.0,0.0,0.0,0.0,0.0,0.0,0.0,0.0,1747538296.8870127,0.0, 2025-05-17 20:18:16.887
184.0,-722376.9095393312,-527281.0491658509,-721799.6980905173,-721958.7531040614,-645843.5530476038,-651881.0274459156,-619435.7716364589,-585934.1723840443,0.364,-0.248,0.904,192.0,0.0,0.0,0.0,0.0,0.0,0.0,0.0,0.0,0.0,1747538296.887048,0.0, 2025-05-17 20:18:16.887
185.0,-722408.4702025021,-527315.5602592898,-721769.4785320137,-721827.5930675976,-645911.5023507479,-651975.4412144949,-619572.0278706584,-586056.6599436593,0.364,-0.248,0.904,192.0,0.0,0.0,0.0,0.0,0.0,0.0,0.0,0.0,0.0,1747538296.887081,0.0, 2025-05-17 20:18:16.887
186.0,-722279.0983055948,-527340.5942130798,-721724.5962291475,-721665.4088098299,-645949.4109093441,-652037.5790640806,-619674.756488175,-586147.855061037,0.364,-0.248,0.904,192.0,0.0,0.0,0.0,0.0,0.0,0.0,0.0,0.0,0.0,1747538296.887113,0.0, 2025-05-17 20:18:16.887
187.0,-722228.4939561479,-527300.1822591046,-721683.0219844606,-721444.305353678,-645926.7015369775,-652041.6023780826,-619716.6883607731,-586179.9521660748,0.36,-0.26,0.908,192.0,11.0,64.0,247.0,224.0,28.0,96.0,0.0,0.0,0.0,1747538296.8871465,0.0, 2025-05-17 20:18:16.887
188.0,-722264.1673402986,-527259.8597121072,-721624.5498209655,-721242.3349907798,-645922.3205950643,-652065.5634481387,-619777.5745126695,-586232.7022829893,0.36,-0.26,0.908,192.0,0.0,0.0,0.0,0.0,0.0,0.0,0.0,0.0,0.0,1747538296.887185,0.0, 2025-05-17 20:18:16.887
189.0,-722202.2083046685,-527282.7478984294,-721568.7598668052,-721090.8795703506,-645968.7228165535,-652137.8936931961,-619889.0650140125,-586336.2355633064,0.36,-0.26,0.908,192.0,0.0,0.0,0.0,0.0,0.0,0.0,0.0,0.0,0.0,1747538296.8872108,0.0, 2025-05-17 20:18:16.887
190.0,-722079.0054892309,-527305.993712663,-721532.7288547432,-720865.5739862411,-645999.478816924,-652194.1306822456,-619985.4457361038,-586421.887448059,0.36,-0.26,0.908,192.0,0.0,0.0,0.0,0.0,0.0,0.0,0.0,0.0,0.0,1747538296.8872333,0.0, 2025-05-17 20:18:16.887
191.0,-722057.6372215316,-527246.7168863674,-721492.4063077457,-720270.8387697743,-645964.520688596,-652185.905240286,-620013.877155051,-586441.6463901575,0.36,-0.26,0.908,192.0,0.0,0.0,0.0,0.0,0.0,0.0,0.0,0.0,0.0,1747538296.8872595,0.0, 2025-05-17 20:18:16.887
192.0,-722004.440069728,-527105.3644544322,-721466.1206562663,-720017.1017667177,-645862.2391059684,-652113.3067742953,-619973.1969801423,-586393.1878081785,0.36,-0.26,0.908,192.0,0.0,0.0,0.0,0.0,0.0,0.0,0.0,0.0,0.0,1747538296.8872807,0.0, 2025-05-17 20:18:16.887
193.0,-722026.3447792941,-527072.6415005495,-721382.8827599147,-720113.3930818312,-645870.0175130388,-652149.427193335,-620043.1132367984,-586455.0574368307,0.36,-0.26,0.908,192.0,0.0,0.0,0.0,0.0,0.0,0.0,0.0,0.0,0.0,1747538296.8873024,0.0, 2025-05-17 20:18:16.887
194.0,-721933.5403363158,-527086.8572100231,-721337.1957942481,-720247.0565136739,-645909.7142111915,-652215.0519150558,-620147.5405868937,-586550.0076472769,0.36,-0.26,0.908,192.0,0.0,0.0,0.0,0.0,0.0,0.0,0.0,0.0,0.0,1747538296.8873236,0.0, 2025-05-17 20:18:16.887
195.0,-721804.1684394084,-527003.3510927381,-721287.5749215573,-720267.8883395062,-645845.0729662267,-652179.1103099716,-620147.4511799158,-586540.7987285613,0.36,-0.26,0.908,192.0,0.0,0.0,0.0,0.0,0.0,0.0,0.0,0.0,0.0,1747538296.887372,0.0, 2025-05-17 20:18:16.887
196.0,-721765.9022529009,-526875.0520795647,-721205.5887228952,-720260.3781533693,-645753.3414069822,-652116.7042394525,-620118.7515400352,-586504.4994955659,0.36,-0.26,0.908,192.0,0.0,0.0,0.0,0.0,0.0,0.0,0.0,0.0,0.0,1747538296.8873937,0.0, 2025-05-17 20:18:16.887
197.0,-721775.8264274391,-526820.6032300715,-721160.3487921178,-720330.4732239811,-645739.5727323977,-652129.6682512366,-620164.4385057018,-586544.8220425632,0.356,-0.258,0.908,192.0,11.0,32.0,247.0,240.0,28.0,96.0,0.0,0.0,0.0,1747538296.8874147,0.0, 2025-05-17 20:18:16.887
198.0,-721696.0754032226,-526833.1202069664,-721107.9563031145,-720462.2591092896,-645777.7495119274,-652193.3260194452,-620264.5743208616,-586637.7158925195,0.356,-0.258,0.908,192.0,0.0,0.0,0.0,0.0,0.0,0.0,0.0,0.0,0.0,1747538296.887438,0.0, 2025-05-17 20:18:16.887
199.0,-721581.4556576557,-526774.6480434714,-721071.2994422078,-720506.1579353998,-645735.7282323514,-652178.7526820604,-620283.7968210932,-586650.6799043036,0.356,-0.258,0.908,192.0,0.0,0.0,0.0,0.0,0.0,0.0,0.0,0.0,0.0,1747538296.8874593,0.0, 2025-05-17 20:18:16.887
200.0,-721540.0602269245,-526649.3888675439,-720999.5056390173,-720498.8265632185,-645644.6225219516,-652116.8830534081,-620255.6336230795,-586616.1688108646,0.356,-0.258,0.908,192.0,0.0,0.0,0.0,0.0,0.0,0.0,0.0,0.0,0.0,1747538297.344986,0.0, 2025-05-17 20:18:17.344
201.0,-721556.9581457328,-526588.1450877363,-720967.9449758464,-720606.9195994043,-645622.4495914519,-652122.0686581217,-620297.2078677664,-586650.5010903479,0.356,-0.258,0.908,192.0,0.0,0.0,0.0,0.0,0.0,0.0,0.0,0.0,0.0,1747538297.345072,0.0, 2025-05-17 20:18:17.345
202.0,-721571.7102970732,-526646.7066582092,-720948.5436616592,-721137.9970476624,-645712.39301114,-652237.3142525333,-620451.8819393971,-586796.50268513,0.356,-0.258,0.908,192.0,0.0,0.0,0.0,0.0,0.0,0.0,0.0,0.0,0.0,1747538297.3451345,0.0, 2025-05-17 20:18:17.345
203.0,-721426.4239581138,-526665.0350886625,-720896.5088005672,-721234.6459906872,-645740.913837065,-652293.461834605,-620547.010963799,-586880.9028721933,0.356,-0.258,0.908,192.0,0.0,0.0,0.0,0.0,0.0,0.0,0.0,0.0,0.0,1747538297.3451917,0.0, 2025-05-17 20:18:17.345
204.0,-721356.5077014575,-526604.7747856111,-720826.1455090219,-720995.4823250154,-645697.3726388661,-652277.010950686,-620568.7368594095,-586891.005860687,0.356,-0.258,0.908,192.0,0.0,0.0,0.0,0.0,0.0,0.0,0.0,0.0,0.0,1747538297.34525,0.0, 2025-05-17 20:18:17.345
206.0,-721355.9712595906,-526625.1595765543,-720768.4780083273,-720679.071030506,-645775.6931514374,-652404.2370801255,-620775.8034200434,-587077.3300024664,0.356,-0.258,0.908,192.0,0.0,0.0,0.0,0.0,0.0,0.0,0.0,0.0,0.0,1747538297.3453,0.0, 2025-05-17 20:18:17.345
207.0,-721238.5798977113,-526625.8748323768,-720732.5364032432,-720493.7303654826,-645790.1770818445,-652442.3244526774,-620851.9781651471,-587144.2064218768,0.362,-0.258,0.908,192.0,11.0,80.0,247.0,240.0,28.0,96.0,0.0,0.0,0.0,1747538297.3453476,0.0, 2025-05-17 20:18:17.345
208.0,-721219.8044323688,-526545.9449942047,-720661.9942977423,-720244.8213392283,-645738.410441686,-652417.1116849318,-620862.52818853,-587143.1335381429,0.362,-0.258,0.908,192.0,0.0,0.0,0.0,0.0,0.0,0.0,0.0,0.0,0.0,1747538297.3453865,0.0, 2025-05-17 20:18:17.345
209.0,-721228.0298743284,-526477.1016212823,-720580.9915758362,-720016.2076969395,-645706.4921506038,-652412.9095569742,-620895.3405493904,-587163.4289221084,0.362,-0.258,0.908,192.0,0.0,0.0,0.0,0.0,0.0,0.0,0.0,0.0,0.0,1747538297.3454227,0.0, 2025-05-17 20:18:17.345
210.0,-721199.7772693369,-526501.5097262275,-720536.1092729699,-719730.7312167563,-645761.2092210305,-652492.9288021241,-621013.1789461588,-587271.7007722498,0.362,-0.258,0.908,192.0,0.0,0.0,0.0,0.0,0.0,0.0,0.0,0.0,0.0,1747538297.3454576,0.0, 2025-05-17 20:18:17.345
211.0,-721065.7562095829,-526511.3444937879,-720550.1461684878,-719221.3796641087,-645785.6173259757,-652541.4767910811,-621098.8308309115,-587349.1272150431,0.362,-0.258,0.908,192.0,0.0,0.0,0.0,0.0,0.0,0.0,0.0,0.0,0.0,1747538297.34556,0.0, 2025-05-17 20:18:17.345
212.0,-721012.201429868,-526423.725655523,-720463.8684348904,-719145.3837329607,-645722.9430345229,-652508.1279883537,-621099.2778658007,-587342.0640637951,0.362,-0.258,0.908,192.0,0.0,0.0,0.0,0.0,0.0,0.0,0.0,0.0,0.0,1747538297.3455963,0.0, 2025-05-17 20:18:17.345
213.0,-720983.5911969652,-526305.5296308434,-720418.6285041128,-719149.9434888297,-645644.0860800847,-652457.8812668183,-621082.4693539703,-587317.6559588499,0.362,-0.258,0.908,192.0,0.0,0.0,0.0,0.0,0.0,0.0,0.0,0.0,0.0,1747538297.3456335,0.0, 2025-05-17 20:18:17.345
214.0,-720990.2967203017,-526268.3363280698,-720356.3118405715,-719241.0491992295,-645645.5165917297,-652484.7033601647,-621145.8589012455,-587374.4293897664,0.362,-0.258,0.908,192.0,0.0,0.0,0.0,0.0,0.0,0.0,0.0,0.0,0.0,1747538297.3456953,0.0, 2025-05-17 20:18:17.345
215.0,-720862.0871141062,-526253.1371418402,-720309.9096190822,-719338.4133980768,-645652.6691499555,-652515.9063954243,-621215.5069369682,-587437.7295300638,0.362,-0.258,0.908,192.0,0.0,0.0,0.0,0.0,0.0,0.0,0.0,0.0,0.0,1747538297.3457353,0.0, 2025-05-17 20:18:17.345
216.0,-720773.4847990853,-526168.0216989544,-720269.2294441735,-719358.1723401753,-645587.4914631238,-652479.1601275397,-621212.4670997224,-587429.4146811265,0.362,-0.258,0.908,192.0,0.0,0.0,0.0,0.0,0.0,0.0,0.0,0.0,0.0,1747538297.345774,0.0, 2025-05-17 20:18:17.345
217.0,-720744.5169382712,-526049.9150812525,-720182.6834896426,-719362.285061155,-645506.3099272621,-652426.5888245808,-621191.7246808677,-587403.3078436027,0.364,-0.256,0.908,192.0,11.0,96.0,248.0,0.0,28.0,96.0,0.0,0.0,0.0,1747538297.345812,0.0, 2025-05-17 20:18:17.345
218.0,-720754.3517058316,-526045.7129532949,-720126.8935354821,-719485.7560975262,-645540.1951718563,-652484.1669182976,-621286.4066703805,-587490.0326120893,0.364,-0.256,0.908,192.0,0.0,0.0,0.0,0.0,0.0,0.0,0.0,0.0,0.0,1747538297.345851,0.0, 2025-05-17 20:18:17.345
219.0,-720625.9632856803,-526039.186243914,-720093.9023606661,-719589.1105638875,-645552.7121487514,-652522.3436978273,-621361.8661596616,-587556.5514035883,0.364,-0.256,0.908,192.0,0.0,0.0,0.0,0.0,0.0,0.0,0.0,0.0,0.0,1747538297.3458867,0.0, 2025-05-17 20:18:17.345
220.0,-720588.5017619731,-525968.4653244574,-720040.0793600178,-719629.7907387961,-645509.1709505523,-652505.6245929748,-621380.8204389598,-587567.6378688382,0.364,-0.256,0.908,192.0,0.0,0.0,0.0,0.0,0.0,0.0,0.0,0.0,0.0,1747538297.3459215,0.0, 2025-05-17 20:18:17.345
221.0,-720543.7982730626,-525837.4841019493,-719956.0368008658,-719660.2785182332,-645415.2936238401,-652439.5528363648,-621349.5279967223,-587525.9742171734,0.364,-0.256,0.908,192.0,0.0,0.0,0.0,0.0,0.0,0.0,0.0,0.0,0.0,1747538297.3459568,0.0, 2025-05-17 20:18:17.345
222.0,-720544.8711567963,-525789.2937409036,-719913.2108584894,-720084.3358140392,-645404.385972546,-652453.3215109494,-621401.3840438586,-587569.8730432836,0.364,-0.256,0.908,192.0,0.0,0.0,0.0,0.0,0.0,0.0,0.0,0.0,0.0,1747538297.345993,0.0, 2025-05-17 20:18:17.345
223.0,-720476.6536327188,-525844.4578462193,-719866.0933811776,-720244.016676428,-645481.812415339,-652553.9937679761,-621542.1106269492,-587701.74833557,0.364,-0.256,0.908,192.0,0.0,0.0,0.0,0.0,0.0,0.0,0.0,0.0,0.0,1747538297.3460288,0.0, 2025-05-17 20:18:17.346
224.0,-720367.8453407104,-525849.5540439552,-719852.7717414823,-720062.5205114508,-645497.8162643691,-652595.2997917294,-621621.6828372101,-587772.201034093,0.364,-0.256,0.908,192.0,0.0,0.0,0.0,0.0,0.0,0.0,0.0,0.0,0.0,1747538297.3460636,0.0, 2025-05-17 20:18:17.346
225.0,-720338.8774798963,-525754.067391642,-719800.0216245678,-719800.8262873682,-645431.1186589145,-652556.9441982441,-621617.3913022747,-587759.9522781315,0.364,-0.256,0.908,192.0,0.0,0.0,0.0,0.0,0.0,0.0,0.0,0.0,0.0,1747538297.3461363,0.0, 2025-05-17 20:18:17.346
226.0,-720366.057201154,-525713.7448446447,-719727.2443446213,-719602.0745756716,-645428.1682286464,-652579.2065357217,-621677.3833843927,-587811.271883401,0.364,-0.256,0.908,192.0,0.0,0.0,0.0,0.0,0.0,0.0,0.0,0.0,0.0,1747538297.346174,0.0, 2025-05-17 20:18:17.346
227.0,-720326.8969448683,-525769.7136127608,-719697.9188558959,-719484.7726207701,-645510.3332412641,-652684.527955595,-621822.4909093966,-587947.6175245784,0.36,-0.25,0.914,192.0,11.0,64.0,248.0,48.0,28.0,144.0,0.0,0.0,0.0,1747538297.3463955,0.0, 2025-05-17 20:18:17.346
228.0,-720200.2072572956,-525814.6853226048,-719675.9247393518,-719338.8604329659,-645564.0668349346,-652762.4908402552,-621938.9882014976,-588054.0118281855,0.36,-0.25,0.914,192.0,0.0,0.0,0.0,0.0,0.0,0.0,0.0,0.0,0.0,1747538297.3464427,0.0, 2025-05-17 20:18:17.346
229.0,-720146.473663625,-525779.0119384542,-719608.2436571412,-719123.9260582837,-645547.0795091486,-652771.6997589708,-621986.9103416099,-588090.6686890923,0.36,-0.25,0.914,192.0,0.0,0.0,0.0,0.0,0.0,0.0,0.0,0.0,0.0,1747538297.3464787,0.0, 2025-05-17 20:18:17.346
230.0,-720182.6834896426,-525735.2919262996,-719533.0523887936,-718901.3920904866,-645538.0494043886,-652788.1506428899,-622042.7002957702,-588138.1437943154,0.36,-0.25,0.914,192.0,0.0,0.0,0.0,0.0,0.0,0.0,0.0,0.0,0.0,1747538297.3465352,0.0, 2025-05-17 20:18:17.346
231.0,-720155.950803274,-525759.4318103113,-719506.8561442919,-718449.1715966668,-645590.5313003697,-652862.090213548,-622157.8564832039,-588245.9686095677,0.36,-0.25,0.914,192.0,0.0,0.0,0.0,0.0,0.0,0.0,0.0,0.0,0.0,1747538297.346572,0.0, 2025-05-17 20:18:17.346
232.0,-720016.9229527621,-525747.5406822611,-719521.5188886547,-718136.4259882482,-645594.1075794826,-652888.6440859609,-622221.7824723462,-588302.7420404842,0.36,-0.25,0.914,192.0,0.0,0.0,0.0,0.0,0.0,0.0,0.0,0.0,0.0,1747538297.346608,0.0, 2025-05-17 20:18:17.346
233.0,-719957.8249404222,-525637.6595065189,-719438.1915853253,-718129.4522439782,-645511.9425668649,-652833.569387623,-622202.5599721146,-588275.9199471378,0.36,-0.25,0.914,192.0,0.0,0.0,0.0,0.0,0.0,0.0,0.0,0.0,0.0,1747538297.346645,0.0, 2025-05-17 20:18:17.346
234.0,-719946.6490681946,-525539.4906448711,-719366.3977821348,-718157.6154419918,-645453.0233684806,-652802.9027942304,-622205.2421814492,-588272.9695168698,0.36,-0.25,0.914,192.0,0.0,0.0,0.0,0.0,0.0,0.0,0.0,0.0,0.0,1747538297.3467453,0.0, 2025-05-17 20:18:17.346
235.0,-719979.7296499885,-525524.1126446859,-719352.271479639,-718269.1059433349,-645479.3984269379,-652853.2389227437,-622291.2516941132,-588351.2900294411,0.36,-0.25,0.914,192.0,0.0,0.0,0.0,0.0,0.0,0.0,0.0,0.0,0.0,1747538297.346788,0.0, 2025-05-17 20:18:17.346
236.0,-719828.3636365371,-525484.2371325776,-719301.8459441479,-718341.3467814145,-645464.825089553,-652862.3584344814,-622336.1339969796,-588389.1985880374,0.36,-0.25,0.914,192.0,0.0,0.0,0.0,0.0,0.0,0.0,0.0,0.0,0.0,1747538297.346824,0.0, 2025-05-17 20:18:17.346
237.0,-719719.6447515065,-525389.4657360871,-719234.7907107819,-718353.9531652872,-645394.6406119633,-652817.4761316152,-622325.6733805744,-588373.0159250518,0.358,-0.246,0.918,192.0,11.0,48.0,248.0,80.0,28.0,176.0,0.0,0.0,0.0,1747538297.3468592,0.0, 2025-05-17 20:18:17.346
238.0,-719687.4582394909,-525267.4252113611,-719169.6130239503,-718350.3768861743,-645310.329831878,-652761.5073634991,-622303.7686710082,-588345.9256107719,0.358,-0.246,0.918,192.0,0.0,0.0,0.0,0.0,0.0,0.0,0.0,0.0,0.0,1747538297.3469172,0.0, 2025-05-17 20:18:17.346
239.0,-719733.5028330687,-525242.480664549,-719121.9591047716,-718454.8936432474,-645325.8866460188,-652803.6180500529,-622383.0726603357,-588417.8088209402,0.358,-0.246,0.918,192.0,0.0,0.0,0.0,0.0,0.0,0.0,0.0,0.0,0.0,1747538297.3469665,0.0, 2025-05-17 20:18:17.346
240.0,-719652.0530762736,-525233.0035249,-719061.1623598532,-718565.6688887678,-645345.1985532283,-652847.3380622076,-622465.3270799312,-588492.1060195096,0.358,-0.246,0.918,192.0,0.0,0.0,0.0,0.0,0.0,0.0,0.0,0.0,0.0,1747538297.3470552,0.0, 2025-05-17 20:18:17.347
241.0,-719519.2837142091,-525167.0211752679,-719012.0779290292,-718604.7397380758,-645298.1704828943,-652827.3108991756,-622479.453382427,-588499.9738335579,0.358,-0.246,0.918,192.0,0.0,0.0,0.0,0.0,0.0,0.0,0.0,0.0,0.0,1747538297.347093,0.0, 2025-05-17 20:18:17.347
242.0,-719501.2235046892,-525068.0476508198,-718913.193811559,-718767.4604377104,-645232.6351681513,-652789.8493754684,-622474.8042195803,-588489.7814380863,0.358,-0.246,0.918,192.0,0.0,0.0,0.0,0.0,0.0,0.0,0.0,0.0,0.0,1747538297.347132,0.0, 2025-05-17 20:18:17.347
243.0,-719536.807481862,-525066.7959531302,-718915.4289860046,-719212.5283733044,-645268.2191453242,-652849.9308645644,-622572.973081228,-588580.7977415082,0.358,-0.246,0.918,192.0,0.0,0.0,0.0,0.0,0.0,0.0,0.0,0.0,0.0,1747538297.3471682,0.0, 2025-05-17 20:18:17.347
244.0,-719466.4441903167,-525135.8181400083,-718878.68271812,-719201.7101289881,-645357.8049371011,-652963.2989124416,-622727.2001179695,-588725.458231623,0.358,-0.246,0.918,192.0,0.0,0.0,0.0,0.0,0.0,0.0,0.0,0.0,0.0,1747538297.3472068,0.0, 2025-05-17 20:18:17.347
245.0,-719339.8439097219,-525130.9901632059,-718843.2775549028,-719006.6241033822,-645363.0799487925,-652992.9820290783,-622795.0600141359,-588783.7515811624,0.358,-0.246,0.918,192.0,0.0,0.0,0.0,0.0,0.0,0.0,0.0,0.0,0.0,1747538297.3472316,0.0, 2025-05-17 20:18:17.347
246.0,-719326.2540490931,-525057.408220459,-718785.2524262968,-718763.3477167306,-645317.303576148,-652972.7760520907,-622812.1367468997,-588790.2782905434,0.358,-0.246,0.918,192.0,0.0,0.0,0.0,0.0,0.0,0.0,0.0,0.0,0.0,1747538297.3472536,0.0, 2025-05-17 20:18:17.347
247.0,-719368.7223635581,-525025.400522399,-718741.9794490313,-718572.8214469936,-645324.0090994847,-653003.621459439,-622881.8741896003,-588851.5220703509,0.352,-0.244,0.914,192.0,11.0,0.0,248.0,96.0,28.0,144.0,0.0,0.0,0.0,1747538297.3472807,0.0, 2025-05-17 20:18:17.347
248.0,-719323.3036188249,-525061.5209414389,-718697.2759601207,-718435.9393639492,-645385.2528792921,-653089.0945302361,-623007.3121794835,-588967.7511415186,0.352,-0.244,0.914,192.0,0.0,0.0,0.0,0.0,0.0,0.0,0.0,0.0,0.0,1747538297.3473058,0.0, 2025-05-17 20:18:17.347
249.0,-719197.239780097,-525043.9971737858,-718650.7843316537,-718233.8795940733,-645380.1566815564,-653109.8369490906,-623067.7512964907,-589017.1037932759,0.352,-0.244,0.914,192.0,0.0,0.0,0.0,0.0,0.0,0.0,0.0,0.0,0.0,1747538297.3473456,0.0, 2025-05-17 20:18:17.347
250.0,-719168.7189541721,-524947.7952656503,-718563.1654933889,-717905.9347994251,-645313.3696691239,-653070.4084718715,-623064.5326452891,-589005.8385140704,0.352,-0.244,0.914,192.0,0.0,0.0,0.0,0.0,0.0,0.0,0.0,0.0,0.0,1747538297.3473833,0.0, 2025-05-17 20:18:17.347
251.0,-719155.6655354102,-524870.1006019235,-718524.7204929257,-717311.9148387808,-645275.1034826164,-653060.0372624443,-623089.4771921012,-589024.4351654572,0.352,-0.244,0.914,192.0,0.0,0.0,0.0,0.0,0.0,0.0,0.0,0.0,0.0,1747538297.347416,0.0, 2025-05-17 20:18:17.347
252.0,-719078.6861275061,-524893.9722650019,-718504.7827368716,-717242.0879891025,-645326.2442739302,-653137.3742982596,-623203.3816818454,-589130.1142132418,0.352,-0.244,0.914,192.0,0.0,0.0,0.0,0.0,0.0,0.0,0.0,0.0,0.0,1747538297.3474376,0.0, 2025-05-17 20:18:17.347
253.0,-718964.6028238062,-524866.881950722,-718478.4970853921,-717322.3754551859,-645316.0518784586,-653154.4510310234,-623254.8801010705,-589173.2977835295,0.352,-0.244,0.914,192.0,0.0,0.0,0.0,0.0,0.0,0.0,0.0,0.0,0.0,1747538297.3474596,0.0, 2025-05-17 20:18:17.347
254.0,-718937.6019165042,-524762.0969727156,-718397.2261425527,-717337.6640483933,-645243.9898543346,-653113.14500727,-623245.8499963105,-589156.1316437878,0.352,-0.244,0.914,192.0,0.0,0.0,0.0,0.0,0.0,0.0,0.0,0.0,0.0,1747538297.3474803,0.0, 2025-05-17 20:18:17.347
255.0,-718920.5251837403,-524659.2789482211,-718356.9930025331,-717357.5123974696,-645181.6731907933,-653080.3326464096,-623246.1182172439,-589149.6049344069,0.352,-0.244,0.914,192.0,0.0,0.0,0.0,0.0,0.0,0.0,0.0,0.0,0.0,1747538297.3475304,0.0, 2025-05-17 20:18:17.347
0.0,-718946.2743933528,-524642.0234015016,-718286.54030401,-717471.2380732582,-645202.4156096478,-653128.3441934997,-623331.9489159524,-589226.7631562667,0.352,-0.244,0.914,192.0,0.0,0.0,0.0,0.0,0.0,0.0,0.0,0.0,0.0,1747538297.3475523,0.0, 2025-05-17 20:18:17.347
1.0,-718795.1766008349,-524615.9165639778,-718239.3334197204,-717554.2077486763,-645195.1736444442,-653147.5666937312,-623387.7388701128,-589275.2217382457,0.358,-0.244,0.914,192.0,11.0,48.0,248.0,96.0,28.0,144.0,0.0,0.0,0.0,1747538297.3475735,0.0, 2025-05-17 20:18:17.347
2.0,-718674.9242156654,-524522.3968651769,-718180.9506632031,-717560.6450510795,-645118.7306784071,-653099.644553619,-623373.9701955284,-589253.8534705464,0.358,-0.244,0.914,192.0,0.0,0.0,0.0,0.0,0.0,0.0,0.0,0.0,0.0,1747538297.347597,0.0, 2025-05-17 20:18:17.347
3.0,-718660.7979131696,-524418.2377360151,-718111.3920344582,-717573.7878768191,-645049.1720496622,-653059.3220066216,-623367.8905210365,-589238.8330982724,0.358,-0.244,0.914,192.0,0.0,0.0,0.0,0.0,0.0,0.0,0.0,0.0,0.0,1747538297.3476183,0.0, 2025-05-17 20:18:17.347
4.0,-718679.126343623,-524411.0851777894,-718072.9470339951,-717764.939995401,-645079.5704221213,-653114.9331468265,-623460.8737779706,-589322.6968434688,0.358,-0.244,0.914,192.0,0.0,0.0,0.0,0.0,0.0,0.0,0.0,0.0,0.0,1747538297.347639,0.0, 2025-05-17 20:18:17.347
5.0,-718544.1218071129,-524420.741131394,-718059.8042082554,-718246.6647919017,-645108.8959108468,-653169.0243684083,-623551.4430465035,-589402.7160886189,0.358,-0.244,0.914,192.0,0.0,0.0,0.0,0.0,0.0,0.0,0.0,0.0,0.0,1747538297.3476608,0.0, 2025-05-17 20:18:17.347
6.0,-718458.2017014268,-524382.0279099975,-717978.8908933272,-718221.8096520675,-645087.1700152361,-653171.8853916986,-623591.8550004787,-589431.4157284994,0.358,-0.244,0.914,192.0,0.0,0.0,0.0,0.0,0.0,0.0,0.0,0.0,0.0,1747538297.3476815,0.0, 2025-05-17 20:18:17.347
7.0,-718464.9966317412,-524302.0980718253,-717918.8094042313,-717979.2485212384,-645042.198305392,-653154.0934031121,-623609.2893611538,-589440.0882053481,0.358,-0.244,0.914,192.0,0.0,0.0,0.0,0.0,0.0,0.0,0.0,0.0,0.0,1747538297.3477025,0.0, 2025-05-17 20:18:17.347
8.0,-718523.7370161697,-524313.5421649864,-717893.954264397,-717828.7765775654,-645088.9581547927,-653226.7812760808,-623720.1540136521,-589542.2803809977,0.358,-0.244,0.914,192.0,0.0,0.0,0.0,0.0,0.0,0.0,0.0,0.0,0.0,1747538297.3477235,0.0, 2025-05-17 20:18:17.347
9.0,-718437.54868955,-524355.8316654959,-717850.5918801537,-717691.7156805653,-645151.4536322897,-653313.0590096783,-623845.1449686462,-589658.3306382097,0.358,-0.244,0.914,192.0,0.0,0.0,0.0,0.0,0.0,0.0,0.0,0.0,0.0,1747538297.3477454,0.0, 2025-05-17 20:18:17.347
10.0,-718302.0971181509,-524329.8142349499,-717788.8116584793,-717477.7647826392,-645134.0192716145,-653322.714963283,-623893.6035506253,-589696.686231695,0.358,-0.244,0.914,192.0,0.0,0.0,0.0,0.0,0.0,0.0,0.0,0.0,0.0,1747538297.3477664,0.0, 2025-05-17 20:18:17.347
11.0,-718291.994129657,-524251.85135028977,-717736.5085764538,-717234.4883959877,-645086.4547594136,-653300.4526258055,-623907.5510391655,-589703.1235340982,0.358,-0.244,0.916,192.0,11.0,48.0,248.0,96.0,28.0,160.0,0.0,0.0,0.0,1747538297.347787,0.0, 2025-05-17 20:18:17.347
12.0,-718338.5751651019,-524247.4704083765,-717684.7419362953,-717067.8337893288,-645122.9328063647,-653358.8353823228,-624004.5576101014,-589791.6364421411,0.358,-0.244,0.916,192.0,0.0,0.0,0.0,0.0,0.0,0.0,0.0,0.0,0.0,1747538297.3478093,0.0, 2025-05-17 20:18:17.347
13.0,-718272.1457805808,-524305.4061300047,-717635.2998775602,-716721.5605642272,-645203.1308654703,-653462.726290551,-624148.2346234602,-589923.5117344274,0.358,-0.244,0.916,192.0,0.0,0.0,0.0,0.0,0.0,0.0,0.0,0.0,0.0,1747538297.3478484,0.0, 2025-05-17 20:18:17.347
14.0,-718153.4133140342,-524269.0174900314,-717647.7274474773,-716256.9125004903,-645180.0638651925,-653466.2131626861,-624187.5736937015,-589954.5359557314,0.358,-0.244,0.916,192.0,0.0,0.0,0.0,0.0,0.0,0.0,0.0,0.0,0.0,1747538297.3478696,0.0, 2025-05-17 20:18:17.347
15.0,-718102.7195576095,-524139.64559312415,-717546.0717136946,-716202.9106858863,-645081.8055965669,-653395.9392781185,-624150.4697979057,-589911.5311993994,0.358,-0.244,0.916,192.0,0.0,0.0,0.0,0.0,0.0,0.0,0.0,0.0,0.0,1747538297.3478916,0.0, 2025-05-17 20:18:17.347
16.0,-718111.3920344582,-524068.9246736675,-717504.3186550521,-716259.058267958,-645049.6190845512,-653389.9490106045,-624180.7787633871,-589935.3134554998,0.358,-0.244,0.916,192.0,0.0,0.0,0.0,0.0,0.0,0.0,0.0,0.0,0.0,1747538297.347913,0.0, 2025-05-17 20:18:17.347
17.0,-718078.0432317309,-524072.32213882473,-717462.4761894317,-716384.6750717969,-645086.1865384801,-653449.762278767,-624277.5171133897,-590025.256875188,0.358,-0.244,0.916,192.0,0.0,0.0,0.0,0.0,0.0,0.0,0.0,0.0,0.0,1747538297.347934,0.0, 2025-05-17 20:18:17.347
18.0,-717931.7734160153,-524026.724580136,-717440.0350379986,-716442.4319794694,-645060.0797009564,-653448.242360144,-624308.8989626049,-590050.3802359558,0.358,-0.244,0.916,192.0,0.0,0.0,0.0,0.0,0.0,0.0,0.0,0.0,0.0,1747538297.3479548,0.0, 2025-05-17 20:18:17.347
18.0,-717931.7734160153,-524026.724580136,-717440.0350379986,-716442.4319794694,-645060.0797009564,-653448.242360144,-624308.8989626049,-590050.3802359558,0.358,-0.244,0.916,192.0,0.0,0.0,0.0,0.0,0.0,0.0,0.0,0.0,0.0,1747538297.3479753,0.0, 2025-05-17 20:18:17.347
19.0,-717888.411031772,-523916.3069625267,-717340.0780367944,-716448.8692818725,-644980.9545255846,-653395.5816502073,-624289.3188344621,-590021.770003053,0.358,-0.244,0.916,192.0,0.0,0.0,0.0,0.0,0.0,0.0,0.0,0.0,0.0,1747538297.3479958,0.0, 2025-05-17 20:18:17.347
20.0,-717899.6763109775,-523851.48690360633,-717316.4745946496,-716506.3579686115,-644956.5464206394,-653397.0121618524,-624325.886288391,-590049.1285382663,0.358,-0.244,0.916,192.0,0.0,0.0,0.0,0.0,0.0,0.0,0.0,0.0,0.0,1747538297.3480172,0.0, 2025-05-17 20:18:17.348
21.0,-717869.3673454962,-523885.640369134,-717274.3639080959,-716661.4790751314,-645020.6512237372,-653483.2898954499,-624451.6819061855,-590165.9834582786,0.358,-0.244,0.912,192.0,11.0,48.0,248.0,96.0,28.0,128.0,0.0,0.0,0.0,1747538297.348038,0.0, 2025-05-17 20:18:17.348
22.0,-717715.0509017768,-523839.2381476448,-717212.1366515323,-716716.1961455579,-644988.8223396328,-653475.0644534903,-624479.9345111769,-590186.5470631776,0.358,-0.244,0.912,192.0,0.0,0.0,0.0,0.0,0.0,0.0,0.0,0.0,0.0,1747538297.34806,0.0, 2025-05-17 20:18:17.348
23.0,-717674.8177617572,-523730.5192626142,-717131.0445226484,-716723.8851456506,-644913.4522573295,-653424.5495110214,-624463.2154063244,-590161.8707372989,0.358,-0.244,0.912,192.0,0.0,0.0,0.0,0.0,0.0,0.0,0.0,0.0,0.0,1747538297.3480809,0.0, 2025-05-17 20:18:17.348
24.0,-717670.0791919327,-523647.0131453292,-717088.755022139,-716861.7507054509,-644870.1792800641,-653408.5456619913,-624481.2756158443,-590170.9902490366,0.358,-0.244,0.912,192.0,0.0,0.0,0.0,0.0,0.0,0.0,0.0,0.0,0.0,1747538297.3481033,0.0, 2025-05-17 20:18:17.348
25.0,-717648.0850753887,-523676.1598200989,-717049.0583239864,-717360.820455649,-644929.1878854261,-653494.9128025667,-624606.4453847939,-590285.7888085591,0.358,-0.244,0.912,192.0,0.0,0.0,0.0,0.0,0.0,0.0,0.0,0.0,0.0,1747538297.348124,0.0, 2025-05-17 20:18:17.348
26.0,-717523.0941203946,-523702.1772506449,-717016.3353701038,-717350.0916183104,-644967.9011068227,-653558.3917568198,-624709.8892581331,-590378.0568096706,0.358,-0.244,0.912,192.0,0.0,0.0,0.0,0.0,0.0,0.0,0.0,0.0,0.0,1747538297.3481443,0.0, 2025-05-17 20:18:17.348
27.0,-717476.1554570384,-523631.45633118827,-716957.3267647418,-717105.1164990803,-644920.8730364887,-653536.5764542314,-624726.8765839192,-590383.5106353177,0.358,-0.244,0.912,192.0,0.0,0.0,0.0,0.0,0.0,0.0,0.0,0.0,0.0,1747538297.3481812,0.0, 2025-05-17 20:18:17.348
28.0,-717490.1923525563,-523555.2815860846,-716906.3647873837,-716870.1549613661,-644884.6632104712,-653526.2052448042,-624751.0164679309,-590400.2297401703,0.358,-0.244,0.912,192.0,0.0,0.0,0.0,0.0,0.0,0.0,0.0,0.0,0.0,1747538297.3482015,0.0, 2025-05-17 20:18:17.348
29.0,-717516.835631947,-523584.8752957434,-716858.5320542493,-716735.2398318339,-644950.2879321919,-653615.0757807584,-624876.8120857254,-590517.6211020495,0.358,-0.244,0.912,192.0,0.0,0.0,0.0,0.0,0.0,0.0,0.0,0.0,0.0,1747538297.3482227,0.0, 2025-05-17 20:18:17.348
30.0,-717392.9175606868,-523625.0190287852,-716841.9917633524,-716590.4005277635,-645005.0050026185,-653693.0386654185,-624993.8458196933,-590625.6247312576,0.358,-0.244,0.912,192.0,0.0,0.0,0.0,0.0,0.0,0.0,0.0,0.0,0.0,1747538297.3482437,0.0, 2025-05-17 20:18:17.348
31.0,-717291.7088617932,-523587.11047018896,-716794.695472085,-716369.7441065006,-644981.9380023406,-653694.3797700858,-625035.0624364689,-590656.8277665172,0.358,-0.244,0.916,192.0,11.0,48.0,248.0,96.0,28.0,160.0,0.0,0.0,0.0,1747538297.3482647,0.0, 2025-05-17 20:18:17.348
32.0,-717298.9508269967,-523513.081492553,-716695.4537267034,-716128.6134873169,-644941.4366413876,-653679.1805838562,-625057.7718088356,-590669.7917783012,0.358,-0.244,0.916,192.0,0.0,0.0,0.0,0.0,0.0,0.0,0.0,0.0,0.0,1747538297.3482869,0.0, 2025-05-17 20:18:17.348
33.0,-717343.2072810183,-523519.071760067,-716665.5917961111,-715749.3490873992,-644985.4248744756,-653747.9345498007,-625164.7025543097,-590767.4241980821,0.358,-0.244,0.916,192.0,0.0,0.0,0.0,0.0,0.0,0.0,0.0,0.0,0.0,1747538297.3483076,0.0, 2025-05-17 20:18:17.348
34.0,-717232.789663409,-523539.8141789215,-716691.3410057237,-715357.0312687196,-645027.6249680072,-653815.7050389892,-625270.3816020944,-590863.3578852842,0.358,-0.244,0.916,192.0,0.0,0.0,0.0,0.0,0.0,0.0,0.0,0.0,0.0,1747538297.3483293,0.0, 2025-05-17 20:18:17.348
34.0,-717232.789663409,-523539.8141789215,-716691.3410057237,-715357.0312687196,-645027.6249680072,-653815.7050389892,-625270.3816020944,-590863.3578852842,0.358,-0.244,0.916,192.0,0.0,0.0,0.0,0.0,0.0,0.0,0.0,0.0,0.0,1747538297.34835,0.0, 2025-05-17 20:18:17.348
35.0,-717119.8686504208,-523483.1301549829,-716616.8649931985,-715363.1109432115,-644989.716409411,-653803.0092481386,-625292.3757186384,-590878.1100366247,0.358,-0.244,0.916,192.0,0.0,0.0,0.0,0.0,0.0,0.0,0.0,0.0,0.0,1747538297.3483708,0.0, 2025-05-17 20:18:17.348
36.0,-717085.4469639596,-523363.056583769,-716549.9885737883,-715363.2897571671,-644905.5844432813,-653747.0404800226,-625270.56041605,-590847.8904781211,0.358,-0.244,0.916,192.0,0.0,0.0,0.0,0.0,0.0,0.0,0.0,0.0,0.0,1747538297.3483913,0.0, 2025-05-17 20:18:17.348
36.0,-717085.4469639596,-523363.056583769,-716549.9885737883,-715363.2897571671,-644905.5844432813,-653747.0404800226,-625270.56041605,-590847.8904781211,0.358,-0.244,0.916,192.0,0.0,0.0,0.0,0.0,0.0,0.0,0.0,0.0,0.0,1747538297.348412,0.0, 2025-05-17 20:18:17.348
37.0,-717121.1203481103,-523331.04888570897,-716505.106270922,-715462.4420955708,-644916.670908531,-653782.9820851067,-625343.3376959965,-590911.2800253964,0.358,-0.244,0.916,192.0,0.0,0.0,0.0,0.0,0.0,0.0,0.0,0.0,0.0,1747538297.3484323,0.0, 2025-05-17 20:18:17.348
38.0,-717041.6375448272,-523338.022629979,-716459.3298982775,-715591.1881436334,-644953.9536182826,-653845.0305277146,-625441.0595227551,-591000.508189262,0.358,-0.244,0.916,192.0,0.0,0.0,0.0,0.0,0.0,0.0,0.0,0.0,0.0,1747538297.3484542,0.0, 2025-05-17 20:18:17.348
39.0,-716921.8321945468,-523285.8089549314,-716410.4242814094,-715645.2793652152,-644918.9954899545,-653836.1792369103,-625467.613395168,-591017.1378871368,0.358,-0.244,0.916,192.0,0.0,0.0,0.0,0.0,0.0,0.0,0.0,0.0,0.0,1747538297.3484752,0.0, 2025-05-17 20:18:17.348
40.0,-716876.9498916805,-523158.6722324696,-716339.7033619528,-715634.8187488102,-644826.9063027985,-653771.2697710121,-625436.8573947975,-590976.1894912946,0.358,-0.244,0.916,192.0,0.0,0.0,0.0,0.0,0.0,0.0,0.0,0.0,0.0,1747538297.34851,0.0, 2025-05-17 20:18:17.348
41.0,-716879.185066126,-523089.471231636,-716275.1515239659,-715690.429889015,-644797.4914070955,-653767.2464570102,-625468.3286509906,-591000.9552241511,0.362,-0.252,0.914,192.0,11.0,80.0,248.0,32.0,28.0,144.0,0.0,0.0,0.0,1747538297.348533,0.0, 2025-05-17 20:18:17.348
42.0,-716821.5175654313,-523103.3293131983,-716239.031104926,-715835.3586000632,-644839.9597215605,-653833.9440624648,-625574.2759197088,-591098.2300160206,0.362,-0.252,0.914,192.0,0.0,0.0,0.0,0.0,0.0,0.0,0.0,0.0,0.0,1747538297.3485548,0.0, 2025-05-17 20:18:17.348
43.0,-716698.7617848828,-523069.1758476706,-716181.1847902758,-716180.2013135197,-644822.167732974,-653841.4542486018,-625619.5158504864,-591134.9762839051,0.362,-0.252,0.914,192.0,0.0,0.0,0.0,0.0,0.0,0.0,0.0,0.0,0.0,1747538297.3485768,0.0, 2025-05-17 20:18:17.348
44.0,-716693.2185522579,-522987.2790559863,-716127.1829756717,-716387.3572811314,-644770.4904997934,-653816.7779227231,-625631.9434204034,-591138.2843420845,0.362,-0.252,0.914,192.0,0.0,0.0,0.0,0.0,0.0,0.0,0.0,0.0,0.0,1747538297.348598,0.0, 2025-05-17 20:18:17.348
45.0,-716713.8715641346,-522946.59888107766,-716058.3396027493,-716208.8115464224,-644767.0036276584,-653838.861446245,-625692.4719443885,-591189.4251333983,0.362,-0.252,0.914,192.0,0.0,0.0,0.0,0.0,0.0,0.0,0.0,0.0,0.0,1747538297.3486192,0.0, 2025-05-17 20:18:17.348
46.0,-716667.8269705566,-523006.0545213288,-716045.3755909653,-716091.9566264101,-644852.6555124111,-653947.0438894086,-625840.9769345495,-591328.095355999,0.362,-0.252,0.914,192.0,0.0,0.0,0.0,0.0,0.0,0.0,0.0,0.0,0.0,1747538297.3486402,0.0, 2025-05-17 20:18:17.348
47.0,-716555.9788413023,-523054.1554753966,-716018.2852766855,-715949.97834563,-644910.5912340393,-654029.1194950485,-625963.1962732311,-591440.3011131646,0.362,-0.252,0.914,192.0,0.0,0.0,0.0,0.0,0.0,0.0,0.0,0.0,0.0,1747538297.3486612,0.0, 2025-05-17 20:18:17.348
48.0,-716511.1859454139,-522996.9350095911,-715973.8500087083,-715718.5036800508,-644876.6165824672,-654021.3410879781,-625991.6276921782,-591459.5236133962,0.362,-0.252,0.914,192.0,0.0,0.0,0.0,0.0,0.0,0.0,0.0,0.0,0.0,1747538297.3486824,0.0, 2025-05-17 20:18:17.348
49.0,-716516.5503640831,-522916.55813652975,-715908.5829148988,-715480.7705260242,-644833.7906400908,-654007.0359715266,-626014.3370645449,-591471.5041484243,0.362,-0.252,0.914,192.0,0.0,0.0,0.0,0.0,0.0,0.0,0.0,0.0,0.0,1747538297.3487034,0.0, 2025-05-17 20:18:17.348
50.0,-716512.9740849703,-522948.29761365626,-715838.1302163757,-715346.6600592923,-644898.9683269225,-654097.337019126,-626143.6195544744,-591590.9518707934,0.362,-0.252,0.914,192.0,0.0,0.0,0.0,0.0,0.0,0.0,0.0,0.0,0.0,1747538297.3487248,0.0, 2025-05-17 20:18:17.348
51.0,-716380.2941298836,-522979.7688698493,-715814.7055881865,-715102.757823796,-644944.8341065448,-654168.415566494,-626252.0702185715,-591689.7465812858,0.362,-0.252,0.918,192.0,11.0,80.0,248.0,32.0,28.0,176.0,0.0,0.0,0.0,1747538297.3487456,0.0, 2025-05-17 20:18:17.348
52.0,-716301.9736173121,-522918.70390399743,-715797.6288554226,-714499.5289444362,-644905.22681537,-654153.4846011979,-626272.9914513817,-591701.3694884026,0.362,-0.252,0.918,192.0,0.0,0.0,0.0,0.0,0.0,0.0,0.0,0.0,0.0,1747538297.3487673,0.0, 2025-05-17 20:18:17.348
53.0,-716305.3710824694,-522830.906251777,-715727.6231917887,-714369.5311986841,-644857.1258613021,-654129.7917520752,-626284.6143584984,-591704.2305116928,0.362,-0.252,0.918,192.0,0.0,0.0,0.0,0.0,0.0,0.0,0.0,0.0,0.0,1747538297.348788,0.0, 2025-05-17 20:18:17.348
54.0,-716321.106710566,-522799.7032165174,-715690.9663308819,-714468.5047231322,-644867.4076637516,-654162.8723338691,-626355.5140919107,-591765.4742915004,0.362,-0.252,0.918,192.0,0.0,0.0,0.0,0.0,0.0,0.0,0.0,0.0,0.0,1747538297.3488088,0.0, 2025-05-17 20:18:17.348
55.0,-716201.2119533076,-522787.0968326446,-715661.1044002896,-714568.640538292,-644880.1034546022,-654199.439787798,-626428.3807788349,-591830.8307922877,0.362,-0.252,0.918,192.0,0.0,0.0,0.0,0.0,0.0,0.0,0.0,0.0,0.0,1747538297.348843,0.0, 2025-05-17 20:18:17.348
56.0,-716130.5804408289,-522711.9055642969,-715595.9267134579,-714604.5821433762,-644830.7508028449,-654176.0151596088,-626439.9142789739,-591834.8541062897,0.362,-0.252,0.918,192.0,0.0,0.0,0.0,0.0,0.0,0.0,0.0,0.0,0.0,1747538297.3488643,0.0, 2025-05-17 20:18:17.348
57.0,-716090.4367077872,-522582.0866325005,-715519.7519683542,-714599.3071316847,-644738.2145807999,-654113.0726472227,-626408.9794646477,-591797.3925825825,0.362,-0.252,0.918,192.0,0.0,0.0,0.0,0.0,0.0,0.0,0.0,0.0,0.0,1747538297.3488984,0.0, 2025-05-17 20:18:17.348
58.0,-716126.6465338047,-522550.8835972409,-715467.0018514397,-714697.744214266,-644746.4400227595,-654149.371880218,-626479.4321631709,-591861.5867926582,0.362,-0.252,0.918,192.0,0.0,0.0,0.0,0.0,0.0,0.0,0.0,0.0,0.0,1747538297.3489268,0.0, 2025-05-17 20:18:17.348
59.0,-716047.1637305217,-522561.0759927125,-715430.0767695996,-714826.3114483728,-644784.1697674,-654213.1190554046,-626578.8527225081,-591952.8713170137,0.362,-0.252,0.918,192.0,0.0,0.0,0.0,0.0,0.0,0.0,0.0,0.0,0.0,1747538297.3489482,0.0, 2025-05-17 20:18:17.348
60.0,-715893.6519496026,-522493.2160965462,-715380.9029317979,-714856.9780417655,-644730.167952796,-654185.7605201913,-626584.7535830443,-591951.7984332799,0.362,-0.252,0.918,192.0,0.0,0.0,0.0,0.0,0.0,0.0,0.0,0.0,0.0,1747538297.3489692,0.0, 2025-05-17 20:18:17.348
61.0,-715872.7307167925,-522393.7061302312,-715314.0265123877,-714872.1772279951,-644662.4868705854,-654144.901531327,-626577.9586527299,-591938.9238284735,0.358,-0.252,0.91,192.0,11.0,48.0,248.0,32.0,28.0,112.0,0.0,0.0,0.0,1747538297.3489902,0.0, 2025-05-17 20:18:17.348
62.0,-715883.2807401754,-522328.6178503773,-715247.5971278665,-715070.3924978247,-644636.4694400394,-654147.1367057725,-626612.916781058,-591967.265840443,0.358,-0.252,0.91,192.0,0.0,0.0,0.0,0.0,0.0,0.0,0.0,0.0,0.0,1747538297.828566,0.0, 2025-05-17 20:18:17.828
63.0,-715845.9980304239,-522350.43315296574,-715223.1890229213,-715538.0803988077,-644688.5043011314,-654222.9538229649,-626727.8047475582,-592071.9614114716,0.358,-0.252,0.91,192.0,0.0,0.0,0.0,0.0,0.0,0.0,0.0,0.0,0.0,1747538297.8287024,0.0, 2025-05-17 20:18:17.828
64.0,-715691.5921797267,-522343.1017807844,-715155.0609058215,-715446.2594325852,-644694.4051616675,-654251.921683779,-626797.0951553697,-592129.1818772772,0.358,-0.252,0.91,192.0,0.0,0.0,0.0,0.0,0.0,0.0,0.0,0.0,0.0,1747538297.8288047,0.0, 2025-05-17 20:18:17.828
65.0,-715652.5213304188,-522271.2185706161,-715111.787928556,-715200.7478714881,-644645.7677657328,-654230.6428230576,-626813.456632311,-592134.0992610573,0.358,-0.252,0.91,192.0,0.0,0.0,0.0,0.0,0.0,0.0,0.0,0.0,0.0,1747538297.8289287,0.0, 2025-05-17 20:18:17.828
66.0,-715687.1218308356,-522229.91254686273,-715090.1514399233,-715000.7444621021,-644641.7444517309,-654253.7992303133,-626873.8957493182,-592185.6870872602,0.358,-0.252,0.91,192.0,0.0,0.0,0.0,0.0,0.0,0.0,0.0,0.0,0.0,1747538297.8290288,0.0, 2025-05-17 20:18:17.829
67.0,-715659.1374467775,-522281.50037306553,-715036.239032297,-714882.4590304445,-644722.9259875925,-654357.0642896967,-627018.1092045438,-592319.797553992,0.358,-0.252,0.91,192.0,0.0,0.0,0.0,0.0,0.0,0.0,0.0,0.0,0.0,1747538297.829122,0.0, 2025-05-17 20:18:17.829
68.0,-715513.4934799068,-522294.6431988053,-714992.6978340981,-714707.0425399593,-644745.4565460035,-654405.0758367868,-627104.7445660526,-592396.5087409626,0.358,-0.252,0.91,192.0,0.0,0.0,0.0,0.0,0.0,0.0,0.0,0.0,0.0,1747538297.8292074,0.0, 2025-05-17 20:18:17.829
69.0,-715465.2137118833,-522234.293488776,-714931.3646473128,-714472.0810022451,-644707.5479874073,-654392.2906389583,-627128.8844500643,-592410.7244504362,0.358,-0.252,0.91,192.0,0.0,0.0,0.0,0.0,0.0,0.0,0.0,0.0,0.0,1747538297.8293705,0.0, 2025-05-17 20:18:17.829
70.0,-715497.3108169212,-522177.7882787929,-714878.703937376,-714238.102941287,-644689.666591843,-654400.5160809179,-627173.7667529306,-592446.7554624982,0.358,-0.252,0.91,192.0,0.0,0.0,0.0,0.0,0.0,0.0,0.0,0.0,0.0,1747538297.8294127,0.0, 2025-05-17 20:18:17.829
71.0,-715517.2485729753,-522203.4480814276,-714872.8030768399,-713787.6705870236,-644750.5527437392,-654488.0455122049,-627298.0424521021,-592562.5374987767,0.356,-0.248,0.908,192.0,11.0,32.0,248.0,64.0,28.0,96.0,0.0,0.0,0.0,1747538297.8294375,0.0, 2025-05-17 20:18:17.829
72.0,-715358.2829664091,-522182.6162555953,-714832.1229019312,-713495.0415486147,-644746.8870576486,-654507.3574194142,-627355.3523248854,-592611.3537086671,0.356,-0.248,0.908,192.0,0.0,0.0,0.0,0.0,0.0,0.0,0.0,0.0,0.0,1747538297.8294623,0.0, 2025-05-17 20:18:17.829
73.0,-715286.0421283296,-522086.7719753709,-714774.9024361257,-713499.7801184392,-644677.5966498371,-654463.6374072597,-627345.2493363917,-592593.2934991472,0.356,-0.248,0.908,192.0,0.0,0.0,0.0,0.0,0.0,0.0,0.0,0.0,0.0,1747538297.8294842,0.0, 2025-05-17 20:18:17.829
74.0,-715279.6048259265,-521990.4806602575,-714724.2980866788,-713525.6187350296,-644621.0914398541,-654435.2953952904,-627349.4514643493,-592589.6278130565,0.356,-0.248,0.908,192.0,0.0,0.0,0.0,0.0,0.0,0.0,0.0,0.0,0.0,1747538297.829508,0.0, 2025-05-17 20:18:17.829
75.0,-715297.4862214907,-521988.8713346567,-714643.1165508172,-713652.6660505135,-644654.8872774706,-654495.0192564749,-627447.08388413,-592679.0347908777,0.356,-0.248,0.908,192.0,0.0,0.0,0.0,0.0,0.0,0.0,0.0,0.0,0.0,1747538297.8295407,0.0, 2025-05-17 20:18:17.829
76.0,-715147.7295336401,-521986.36793927767,-714608.8736783116,-713762.1001913667,-644670.622905567,-654537.8451988513,-627526.9243153244,-592749.2192684674,0.356,-0.248,0.908,192.0,0.0,0.0,0.0,0.0,0.0,0.0,0.0,0.0,0.0,1747538297.829564,0.0, 2025-05-17 20:18:17.829
77.0,-715048.308974303,-521935.674182853,-714572.0380034492,-713815.1185292148,-644637.2741028398,-654532.1231522707,-627557.4120947614,-592768.441768699,0.356,-0.248,0.908,192.0,0.0,0.0,0.0,0.0,0.0,0.0,0.0,0.0,0.0,1747538297.829586,0.0, 2025-05-17 20:18:17.829
78.0,-715028.0135903375,-521828.654030401,-714504.8039561277,-713827.2778781984,-644564.5862298711,-654486.8832214932,-627549.097245824,-592749.2192684674,0.356,-0.248,0.908,192.0,0.0,0.0,0.0,0.0,0.0,0.0,0.0,0.0,0.0,1747538297.8296072,0.0, 2025-05-17 20:18:17.829
79.0,-715084.0717654314,-521802.3683789216,-714457.7758857937,-713929.9170887372,-644578.623125389,-654525.7752568454,-627625.9872467503,-592817.7050134784,0.356,-0.248,0.908,192.0,0.0,0.0,0.0,0.0,0.0,0.0,0.0,0.0,0.0,1747538297.8296297,0.0, 2025-05-17 20:18:17.829
80.0,-715035.3449625189,-521773.66873904096,-714415.4863852842,-714030.5893457639,-644584.4345789474,-654554.9219316151,-627692.3272242936,-592876.5348048848,0.356,-0.248,0.908,192.0,0.0,0.0,0.0,0.0,0.0,0.0,0.0,0.0,0.0,1747538297.8296516,0.0, 2025-05-17 20:18:17.829
81.0,-714852.5076928744,-521712.6931801669,-714339.6692680919,-714326.2582214187,-644540.6251598151,-654538.3816407182,-627709.2251431019,-592884.8496538221,0.356,-0.248,0.902,192.0,11.0,32.0,248.0,64.0,28.0,48.0,0.0,0.0,0.0,1747538297.8296735,0.0, 2025-05-17 20:18:17.829
82.0,-714823.8080529938,-521631.6010512831,-714299.3467210945,-714566.5841778022,-644487.5174149892,-654515.2252334625,-627718.4340618175,-592884.5814328887,0.356,-0.248,0.902,192.0,0.0,0.0,0.0,0.0,0.0,0.0,0.0,0.0,0.0,1747538297.8296964,0.0, 2025-05-17 20:18:17.829
83.0,-714881.2967397328,-521632.13749315,-714238.7287901317,-714437.8381297396,-644526.5882642971,-654579.2406295825,-627820.6262374672,-592977.2964688893,0.356,-0.248,0.902,192.0,0.0,0.0,0.0,0.0,0.0,0.0,0.0,0.0,0.0,1747538297.8297288,0.0, 2025-05-17 20:18:17.829
84.0,-714812.1851458771,-521682.5630286412,-714217.0028945211,-714310.8802212335,-644600.9748698444,-654675.0849098068,-627957.2400995779,-593103.3603076172,0.356,-0.248,0.902,192.0,0.0,0.0,0.0,0.0,0.0,0.0,0.0,0.0,0.0,1747538297.829818,0.0, 2025-05-17 20:18:17.829
85.0,-714725.1027494792,-521680.05963326216,-714189.8231732635,-714123.6620096758,-644613.4918467393,-654711.2947358245,-628029.3915306797,-593167.4651107151,0.356,-0.248,0.902,192.0,0.0,0.0,0.0,0.0,0.0,0.0,0.0,0.0,0.0,1747538297.8298397,0.0, 2025-05-17 20:18:17.829
86.0,-714718.0395982313,-521594.1395275759,-714141.6328122178,-713873.7695066654,-644560.8311368026,-654684.8302703894,-628037.1699377501,-593167.4651107151,0.356,-0.248,0.902,192.0,0.0,0.0,0.0,0.0,0.0,0.0,0.0,0.0,0.0,1747538297.8298607,0.0, 2025-05-17 20:18:17.829
87.0,-714722.8675750337,-521572.7712598767,-714075.6504625857,-713689.948760265,-644575.6726951209,-654723.0964568969,-628114.238752632,-593234.6097510589,0.356,-0.248,0.902,192.0,0.0,0.0,0.0,0.0,0.0,0.0,0.0,0.0,0.0,1747538297.8298817,0.0, 2025-05-17 20:18:17.829
88.0,-714629.2584692548,-521632.04808617214,-714048.7389622616,-713565.6730610935,-644651.1321844021,-654820.9970976111,-628253.0877891884,-593362.2829153875,0.356,-0.248,0.902,192.0,0.0,0.0,0.0,0.0,0.0,0.0,0.0,0.0,0.0,1747538297.829903,0.0, 2025-05-17 20:18:17.829
89.0,-714507.3967584845,-521635.7137722628,-713980.521438184,-713282.0741274445,-644663.7385682749,-654859.5315050521,-628329.1731273143,-593429.06992782,0.356,-0.248,0.902,192.0,0.0,0.0,0.0,0.0,0.0,0.0,0.0,0.0,0.0,1747538297.829924,0.0, 2025-05-17 20:18:17.829
90.0,-714475.2996534467,-521546.9326432864,-713936.1755771847,-712671.6032828812,-644602.137160556,-654825.1098185909,-628330.5142319816,-593424.1525440399,0.356,-0.248,0.902,192.0,0.0,0.0,0.0,0.0,0.0,0.0,0.0,0.0,0.0,1747538297.8299456,0.0, 2025-05-17 20:18:17.829
91.0,-714488.8895140755,-521472.09900285,-713892.9025999192,-712574.0602700782,-644567.4472531613,-654818.2254812986,-628357.7833602171,-593444.9843698721,0.352,-0.25,0.902,192.0,11.0,0.0,248.0,48.0,28.0,48.0,0.0,0.0,0.0,1747538297.8299673,0.0, 2025-05-17 20:18:17.829
92.0,-714510.168374797,-521469.05916560406,-713852.490645944,-712701.8228413848,-644602.4947884673,-654879.0222262171,-628457.829768399,-593534.3913476934,0.352,-0.25,0.902,192.0,0.0,0.0,0.0,0.0,0.0,0.0,0.0,0.0,0.0,1747538297.8299892,0.0, 2025-05-17 20:18:17.829
93.0,-714349.8616635635,-521433.6540023869,-713815.2079361925,-712776.9247027546,-644584.7027998809,-654888.9464007553,-628504.5002108217,-593571.7634644227,0.352,-0.25,0.902,192.0,0.0,0.0,0.0,0.0,0.0,0.0,0.0,0.0,0.0,1747538297.830011,0.0, 2025-05-17 20:18:17.830
94.0,-714272.2564068147,-521338.7931989185,-713724.9068885931,-712794.9849122745,-644513.5348455352,-654845.5840165119,-628494.7548502391,-593555.1337665479,0.352,-0.25,0.902,192.0,0.0,0.0,0.0,0.0,0.0,0.0,0.0,0.0,0.0,1747538297.830032,0.0, 2025-05-17 20:18:17.830
95.0,-714278.2466743287,-521264.9430352382,-713680.3822136382,-712845.4104477657,-644476.7885776507,-654837.1797605967,-628521.7557575412,-593573.7304179347,0.352,-0.25,0.902,192.0,0.0,0.0,0.0,0.0,0.0,0.0,0.0,0.0,0.0,1747538297.8300543,0.0, 2025-05-17 20:18:17.830
96.0,-714236.9406505753,-521278.97993075615,-713631.2083758365,-712982.5607517435,-644522.2073223839,-654907.2748312086,-628631.5475263057,-593671.8098726047,0.352,-0.25,0.902,192.0,0.0,0.0,0.0,0.0,0.0,0.0,0.0,0.0,0.0,1747538297.8301082,0.0, 2025-05-17 20:18:17.830
97.0,-714121.5162422081,-521250.8167327424,-713601.6146661777,-713058.824903825,-644512.9984036683,-654921.4011337043,-628684.8340850871,-593714.2781870697,0.352,-0.25,0.902,192.0,0.0,0.0,0.0,0.0,0.0,0.0,0.0,0.0,0.0,1747538297.8301432,0.0, 2025-05-17 20:18:17.830
98.0,-714124.556079454,-521173.5691039049,-713547.0764097067,-713101.2932182901,-644472.0500078262,-654907.2748312086,-628707.3646434981,-593726.9739779204,0.352,-0.25,0.902,192.0,0.0,0.0,0.0,0.0,0.0,0.0,0.0,0.0,0.0,1747538297.830182,0.0, 2025-05-17 20:18:17.830
99.0,-714087.0945557469,-521051.7968001124,-713477.8754088731,-713167.6331958334,-644391.6731347649,-654856.2234468727,-628690.6455386454,-593702.2976520417,0.352,-0.25,0.902,192.0,0.0,0.0,0.0,0.0,0.0,0.0,0.0,0.0,0.0,1747538297.830252,0.0, 2025-05-17 20:18:17.830
100.0,-714061.0771252009,-521057.0718118039,-713434.6918385854,-713654.2753761143,-644431.8168678066,-654921.4905406822,-628792.5694933617,-593797.5160834213,0.352,-0.25,0.902,192.0,0.0,0.0,0.0,0.0,0.0,0.0,0.0,0.0,0.0,1747538297.8302984,0.0, 2025-05-17 20:18:17.830
101.0,-713951.3747634143,-521107.5867542728,-713425.5723268476,-713730.8971561071,-644496.636926727,-655009.7352277917,-628918.6333320896,-593917.0532127683,0.344,-0.244,0.914,192.0,10.0,192.0,248.0,96.0,28.0,144.0,0.0,0.0,0.0,1747538297.8303244,0.0, 2025-05-17 20:18:17.830
102.0,-713922.2280886446,-521077.8142306584,-713369.871779665,-713524.4564443179,-644488.9479266343,-655026.4543326444,-628972.9927746049,-593962.4719575015,0.344,-0.244,0.914,192.0,0.0,0.0,0.0,0.0,0.0,0.0,0.0,0.0,0.0,1747538297.8303497,0.0, 2025-05-17 20:18:17.830
103.0,-713928.4865770921,-520996.09625292977,-713310.5055463917,-713284.1304879345,-644443.7079958568,-655009.5564138361,-628991.947053903,-593972.1279111061,0.344,-0.244,0.914,192.0,0.0,0.0,0.0,0.0,0.0,0.0,0.0,0.0,0.0,1747538297.8303733,0.0, 2025-05-17 20:18:17.830
104.0,-713922.3174956224,-521007.003904224,-713249.7088014733,-713129.0093814146,-644485.639868455,-655077.3269030246,-629099.1460203107,-594067.0781215522,0.344,-0.244,0.914,192.0,0.0,0.0,0.0,0.0,0.0,0.0,0.0,0.0,0.0,1747538297.8303957,0.0, 2025-05-17 20:18:17.830
105.0,-713841.9406225611,-521098.020207646,-713239.6058129795,-713033.790950035,-644593.0176488182,-655205.0000673532,-629268.5722432819,-594224.7026234511,0.344,-0.244,0.914,192.0,0.0,0.0,0.0,0.0,0.0,0.0,0.0,0.0,0.0,1747538297.8304172,0.0, 2025-05-17 20:18:17.830
106.0,-713747.5268539819,-521088.00662613,-713205.7205683852,-712839.9566221186,-644599.2761372657,-655233.8785211896,-629335.3592557143,-594280.4925776116,0.344,-0.244,0.914,192.0,0.0,0.0,0.0,0.0,0.0,0.0,0.0,0.0,0.0,1747538297.830448,0.0, 2025-05-17 20:18:17.830
107.0,-713735.0992840647,-521000.7454157765,-713135.4466838178,-712588.0971655962,-644543.8438110165,-655204.4636254864,-629342.064779051,-594275.2175659201,0.344,-0.244,0.914,192.0,0.0,0.0,0.0,0.0,0.0,0.0,0.0,0.0,0.0,1747538297.83047,0.0, 2025-05-17 20:18:17.830
108.0,-713724.8174816153,-520995.64921804063,-713088.6868344173,-712319.7868251547,-644573.9739625424,-655258.1972191569,-629434.6904080737,-594357.8296134269,0.344,-0.244,0.914,192.0,0.0,0.0,0.0,0.0,0.0,0.0,0.0,0.0,0.0,1747538297.8304915,0.0, 2025-05-17 20:18:17.830
109.0,-713590.3493869721,-521010.31196240336,-713069.1961132522,-711793.000911832,-644606.8757303805,-655313.9871733173,-629528.6571417638,-594443.2132772462,0.344,-0.244,0.914,192.0,0.0,0.0,0.0,0.0,0.0,0.0,0.0,0.0,0.0,1747538297.8305137,0.0, 2025-05-17 20:18:17.830
110.0,-713525.8869559631,-520943.6143569487,-713031.8239965229,-711681.0633755998,-644562.2616484477,-655295.3905219305,-629545.8232815055,-594452.4221959618,0.344,-0.244,0.914,192.0,0.0,0.0,0.0,0.0,0.0,0.0,0.0,0.0,0.0,1747538297.8305347,0.0, 2025-05-17 20:18:17.830
111.0,-713502.1941068404,-520828.9946113819,-712950.0166118165,-711692.0604338718,-644485.8186824106,-655246.9319399515,-629531.8757929654,-594430.9645212847,0.344,-0.248,0.918,192.0,10.0,192.0,248.0,64.0,28.0,176.0,0.0,0.0,0.0,1747538297.830556,0.0, 2025-05-17 20:18:17.830
112.0,-713517.4827000479,-520778.30085495726,-712903.1673554382,-711772.6161208887,-644476.9673916063,-655265.3497773827,-629584.8047238356,-594477.6349637074,0.344,-0.248,0.918,192.0,0.0,0.0,0.0,0.0,0.0,0.0,0.0,0.0,0.0,1747538297.8305857,0.0, 2025-05-17 20:18:17.830
113.0,-713425.5723268476,-520777.4067851791,-712860.3414130618,-711892.1532502357,-644503.9682989083,-655318.4575222085,-629673.585852812,-594559.6211623694,0.344,-0.248,0.918,192.0,0.0,0.0,0.0,0.0,0.0,0.0,0.0,0.0,0.0,1747538297.8306208,0.0, 2025-05-17 20:18:17.830
114.0,-713325.7047326213,-520729.395238089,-712809.0218077925,-711951.9665183981,-644476.6991706728,-655315.5964989181,-629706.3982136725,-594585.0127440706,0.344,-0.248,0.918,192.0,0.0,0.0,0.0,0.0,0.0,0.0,0.0,0.0,0.0,1747538297.8306963,0.0, 2025-05-17 20:18:17.830
115.0,-713302.36951141,-520616.2060041674,-712735.0822371343,-711958.6720417348,-644400.0773906801,-655267.1379169391,-629690.3049576647,-594559.2635344581,0.344,-0.248,0.918,192.0,0.0,0.0,0.0,0.0,0.0,0.0,0.0,0.0,0.0,1747538297.830738,0.0, 2025-05-17 20:18:17.830
116.0,-713308.1809649684,-520537.1702357734,-712683.8520388427,-712004.0013794901,-644362.615866973,-655257.5713703121,-629713.640178876,-594573.9262788208,0.344,-0.248,0.918,192.0,0.0,0.0,0.0,0.0,0.0,0.0,0.0,0.0,0.0,1747538297.8307734,0.0, 2025-05-17 20:18:17.830
117.0,-713274.5639413076,-520539.6736311524,-712630.8337009947,-712132.7474275527,-644399.4515418353,-655318.8151501197,-629810.9149707454,-594663.6014775755,0.344,-0.248,0.918,192.0,0.0,0.0,0.0,0.0,0.0,0.0,0.0,0.0,0.0,1747538297.830795,0.0, 2025-05-17 20:18:17.830
118.0,-713134.0161721726,-520518.3947704309,-712568.6064444311,-712247.1883591638,-644395.5176348111,-655340.0940108412,-629867.3307737507,-594712.9541293328,0.344,-0.248,0.918,192.0,0.0,0.0,0.0,0.0,0.0,0.0,0.0,0.0,0.0,1747538297.8308165,0.0, 2025-05-17 20:18:17.830
119.0,-713112.0220556286,-520439.8060369261,-712523.2771066758,-712617.5120612994,-644344.108622564,-655316.3117547408,-629878.5066459783,-594717.0668503126,0.344,-0.248,0.918,192.0,0.0,0.0,0.0,0.0,0.0,0.0,0.0,0.0,0.0,1747538297.8308372,0.0, 2025-05-17 20:18:17.830
120.0,-713125.5225092795,-520379.3669199189,-712479.19946661,-712740.8936906927,-644323.0085757981,-655320.156254787,-629921.5114023103,-594751.6673507295,0.344,-0.248,0.918,192.0,0.0,0.0,0.0,0.0,0.0,0.0,0.0,0.0,0.0,1747538297.8308585,0.0, 2025-05-17 20:18:17.830
121.0,-713086.2728460161,-520427.1102460754,-712453.5396639752,-712623.9493637026,-644398.8256929906,-655418.6827443461,-630060.8968807337,-594883.900270927,0.346,-0.242,0.916,192.0,10.0,208.0,248.0,112.0,28.0,160.0,0.0,0.0,0.0,1747538297.8308797,0.0, 2025-05-17 20:18:17.830
122.0,-712953.5034839516,-520446.9585951518,-712425.8235008507,-712453.8078849087,-644429.2240654498,-655473.1315938391,-630154.1483586011,-594968.2110510124,0.346,-0.242,0.916,192.0,0.0,0.0,0.0,0.0,0.0,0.0,0.0,0.0,0.0,1747538297.8309057,0.0, 2025-05-17 20:18:17.830
123.0,-712921.4957858915,-520384.9995595217,-712366.0102326883,-712218.3099053276,-644391.7625417426,-655459.2735122768,-630178.9140914576,-594982.8737953751,0.346,-0.242,0.916,192.0,0.0,0.0,0.0,0.0,0.0,0.0,0.0,0.0,0.0,1747538297.830943,0.0, 2025-05-17 20:18:17.830
124.0,-712935.6220883873,-520327.2426518492,-712322.2902205337,-712001.9450190002,-644370.2154600878,-655464.1014890792,-630219.773080322,-595016.937853925,0.346,-0.242,0.916,192.0,0.0,0.0,0.0,0.0,0.0,0.0,0.0,0.0,0.0,1747538297.830977,0.0, 2025-05-17 20:18:17.830
125.0,-712888.0575761864,-520376.4164896509,-712274.9939292662,-711877.5799128509,-644444.7808795907,-655563.9690833056,-630356.8339773219,-595146.8461926993,0.346,-0.242,0.916,192.0,0.0,0.0,0.0,0.0,0.0,0.0,0.0,0.0,0.0,1747538297.8310163,0.0, 2025-05-17 20:18:17.831
126.0,-712762.8878072368,-520409.6758854003,-712220.3662658174,-711711.1041201478,-644489.9314033904,-655631.5607585384,-630463.4070948848,-595245.1938683026,0.346,-0.242,0.916,192.0,0.0,0.0,0.0,0.0,0.0,0.0,0.0,0.0,0.0,1747538297.831052,0.0, 2025-05-17 20:18:17.831
127.0,-712726.4097602856,-520357.64102430834,-712147.4995788932,-711200.0538349217,-644462.7516821327,-655628.7891422259,-630498.812258102,-595270.496043026,0.346,-0.242,0.916,192.0,0.0,0.0,0.0,0.0,0.0,0.0,0.0,0.0,0.0,1747538297.8310869,0.0, 2025-05-17 20:18:17.831
128.0,-712706.9190391207,-520245.8823020319,-712128.0088577281,-710773.4037367587,-644391.583727787,-655583.2809905149,-630490.0503742755,-595252.6146474618,0.346,-0.242,0.916,192.0,0.0,0.0,0.0,0.0,0.0,0.0,0.0,0.0,0.0,1747538297.8311453,0.0, 2025-05-17 20:18:17.831
129.0,-712731.5059580215,-520221.20597615314,-712067.3015197875,-710861.290795957,-644410.627414063,-655625.6598980022,-630569.7119915142,-595324.9448925192,0.346,-0.242,0.916,192.0,0.0,0.0,0.0,0.0,0.0,0.0,0.0,0.0,0.0,1747538297.8311672,0.0, 2025-05-17 20:18:17.831
130.0,-712618.4955380554,-520221.7424180201,-712062.2053220518,-710973.4071461448,-644434.4990771412,-655675.6383986042,-630654.380399511,-595402.997184157,0.346,-0.242,0.916,192.0,0.0,0.0,0.0,0.0,0.0,0.0,0.0,0.0,0.0,1747538297.8311892,0.0, 2025-05-17 20:18:17.831
131.0,-712533.4695021474,-520150.21683576313,-711988.6233793049,-711010.5110419407,-644383.7159137387,-655651.766735526,-630665.1092368495,-595405.8582074473,0.352,-0.244,0.918,192.0,11.0,0.0,248.0,96.0,28.0,176.0,0.0,0.0,0.0,1747538297.8312109,0.0, 2025-05-17 20:18:17.831
132.0,-712508.8825832466,-520034.255985529,-711925.3232390074,-711018.2000420332,-644305.3954011673,-655602.235269813,-630649.7312366642,-595380.3772187683,0.352,-0.244,0.918,192.0,0.0,0.0,0.0,0.0,0.0,0.0,0.0,0.0,0.0,1747538297.8312335,0.0, 2025-05-17 20:18:17.831
133.0,-712521.4889671194,-519986.1550314612,-711895.5507153929,-711094.4641941148,-644296.9911452521,-655620.8319211998,-630702.4813535787,-595425.3489286124,0.352,-0.244,0.918,192.0,0.0,0.0,0.0,0.0,0.0,0.0,0.0,0.0,0.0,1747538297.8312554,0.0, 2025-05-17 20:18:17.831
134.0,-712430.4726636973,-519995.6321711102,-711847.0921334139,-711224.8195677781,-644333.0221573141,-655683.237991719,-630800.1137733596,-595513.1465808328,0.352,-0.244,0.918,192.0,0.0,0.0,0.0,0.0,0.0,0.0,0.0,0.0,0.0,1747538297.831276,0.0, 2025-05-17 20:18:17.831
135.0,-712303.3359412355,-519943.5973100183,-711787.4576792071,-711277.5696846927,-644299.9415755203,-655675.3701776707,-630826.7570527503,-595530.4915345302,0.352,-0.244,0.918,192.0,0.0,0.0,0.0,0.0,0.0,0.0,0.0,0.0,0.0,1747538297.8312972,0.0, 2025-05-17 20:18:17.831
136.0,-712279.1960572238,-519836.8453784997,-711693.9379804061,-711294.6464174564,-644227.4325165072,-655629.4149910706,-630817.3693200791,-595511.6266622099,0.352,-0.244,0.918,192.0,0.0,0.0,0.0,0.0,0.0,0.0,0.0,0.0,0.0,1747538297.8313189,0.0, 2025-05-17 20:18:17.831
137.0,-712296.3621969655,-519789.191459321,-711651.5590729188,-711576.2783975934,-644220.3693652594,-655648.279863391,-630875.2156347294,-595559.101767433,0.352,-0.244,0.918,192.0,0.0,0.0,0.0,0.0,0.0,0.0,0.0,0.0,0.0,1747538297.83134,0.0, 2025-05-17 20:18:17.831
138.0,-712227.6976379988,-519823.8813667157,-711641.5454914029,-711991.573809573,-644282.8648427564,-655734.8258179219,-631001.3688804351,-595674.079140911,0.352,-0.244,0.918,192.0,0.0,0.0,0.0,0.0,0.0,0.0,0.0,0.0,0.0,1747538297.8313613,0.0, 2025-05-17 20:18:17.831
139.0,-712101.1867643818,-519817.80169222376,-711590.7623280004,-711856.032831196,-644289.8385870265,-655767.280550871,-631073.0732766477,-595733.5347811622,0.352,-0.244,0.918,192.0,0.0,0.0,0.0,0.0,0.0,0.0,0.0,0.0,0.0,1747538297.831382,0.0, 2025-05-17 20:18:17.831
140.0,-712113.077892432,-519768.9854823334,-711519.3261527212,-711638.5950611348,-644270.2584588836,-655773.8966672298,-631116.435660891,-595768.2246885567,0.352,-0.244,0.918,192.0,0.0,0.0,0.0,0.0,0.0,0.0,0.0,0.0,0.0,1747538297.8314028,0.0, 2025-05-17 20:18:17.831
141.0,-712143.2974509356,-519724.7290283119,-711495.9909315099,-711436.8035121922,-644265.07285417,-655796.0695977295,-631173.6561266966,-595816.8620844915,0.356,-0.244,0.914,192.0,11.0,32.0,248.0,96.0,28.0,144.0,0.0,0.0,0.0,1747538297.8314238,0.0, 2025-05-17 20:18:17.831
142.0,-712109.9486482083,-519770.684214912,-711474.5332568327,-711313.0642548876,-644340.8899713624,-655895.5795640445,-631311.968721386,-595944.8034697537,0.356,-0.244,0.914,192.0,0.0,0.0,0.0,0.0,0.0,0.0,0.0,0.0,0.0,1747538297.8314457,0.0, 2025-05-17 20:18:17.831
143.0,-711967.7915534725,-519790.174936077,-711434.8365586802,-711145.336764495,-644373.3447043115,-655949.9390065598,-631407.1871527657,-596028.8460289057,0.356,-0.244,0.914,192.0,0.0,0.0,0.0,0.0,0.0,0.0,0.0,0.0,0.0,1747538297.8314824,0.0, 2025-05-17 20:18:17.831
144.0,-711904.7596341085,-519721.3315631547,-711360.3605461551,-710901.4345289987,-644326.3166339776,-655926.6037853485,-631422.7439669066,-596033.3163777967,0.356,-0.244,0.914,192.0,0.0,0.0,0.0,0.0,0.0,0.0,0.0,0.0,0.0,1747538297.831504,0.0, 2025-05-17 20:18:17.831
145.0,-711936.3202972794,-519666.07805086114,-711295.1828593235,-710640.3661537607,-644307.9882035241,-655933.4881226406,-631466.2851651055,-596066.218145635,0.356,-0.244,0.914,192.0,0.0,0.0,0.0,0.0,0.0,0.0,0.0,0.0,0.0,1747538297.8315334,0.0, 2025-05-17 20:18:17.831
146.0,-711950.088971864,-519686.2840278488,-711311.6337432425,-710145.4091245424,-644363.599343729,-656012.9709259238,-631584.4811897852,-596175.2946585768,0.356,-0.244,0.914,192.0,0.0,0.0,0.0,0.0,0.0,0.0,0.0,0.0,0.0,1747538297.831586,0.0, 2025-05-17 20:18:17.831
147.0,-711811.1505283298,-519699.8738884776,-711269.5230566887,-710004.5037274961,-644395.6964487669,-656069.3867289289,-631679.2525862757,-596261.214764263,0.356,-0.244,0.914,192.0,0.0,0.0,0.0,0.0,0.0,0.0,0.0,0.0,0.0,1747538297.8316405,0.0, 2025-05-17 20:18:17.831
148.0,-711701.1799456096,-519604.2084222089,-711193.8847534519,-710020.2393555928,-644322.561540909,-656023.2527283732,-631668.5237489372,-596239.6676826081,0.356,-0.244,0.914,192.0,0.0,0.0,0.0,0.0,0.0,0.0,0.0,0.0,0.0,1747538297.8316844,0.0, 2025-05-17 20:18:17.831
149.0,-711679.1858290656,-519488.605199886,-711143.1909970273,-710028.5542045301,-644247.1020516279,-655974.8835533719,-631653.4139696853,-596216.779496286,0.356,-0.244,0.914,192.0,0.0,0.0,0.0,0.0,0.0,0.0,0.0,0.0,0.0,1747538297.8317063,0.0, 2025-05-17 20:18:17.831
150.0,-711718.7931202404,-519477.4293276584,-711083.4671358428,-710154.171008369,-644277.5004240872,-656031.0311354436,-631744.609087063,-596300.7326484601,0.356,-0.244,0.914,192.0,0.0,0.0,0.0,0.0,0.0,0.0,0.0,0.0,0.0,1747538297.8317275,0.0, 2025-05-17 20:18:17.831
151.0,-711605.6932932965,-519475.641188102,-711050.5653680045,-710270.3106725587,-644299.7627615646,-656078.6850546224,-631828.0257973702,-596375.0298470295,0.35,-0.242,0.916,192.0,10.0,240.0,248.0,112.0,28.0,160.0,0.0,0.0,0.0,1747538297.8317487,0.0, 2025-05-17 20:18:17.831
152.0,-711509.5807921387,-519392.4926987282,-710998.8881348239,-710292.9306379474,-644237.7143189567,-656044.8892170059,-631827.5787624811,-596367.6090678703,0.35,-0.242,0.916,192.0,0.0,0.0,0.0,0.0,0.0,0.0,0.0,0.0,0.0,1747538297.8317716,0.0, 2025-05-17 20:18:17.831
153.0,-711493.93457102,-519283.3267788085,-710905.0108081115,-710308.8450799996,-644166.0099227441,-656002.7785304522,-631817.3863670095,-596350.264114173,0.35,-0.242,0.916,192.0,0.0,0.0,0.0,0.0,0.0,0.0,0.0,0.0,0.0,1747538297.8317933,0.0, 2025-05-17 20:18:17.831
154.0,-711517.0015712979,-519250.1567900368,-710856.0157842656,-710406.7457207139,-644172.9836670142,-656036.5743680686,-631887.7496585548,-596411.5973009584,0.35,-0.242,0.916,192.0,0.0,0.0,0.0,0.0,0.0,0.0,0.0,0.0,0.0,1747538297.8318143,0.0, 2025-05-17 20:18:17.831
155.0,-711409.2661630233,-519259.0974878189,-710844.5716911044,-710658.6051772363,-644204.6337371628,-656093.4372059628,-631982.6998690009,-596497.1597787333,0.35,-0.242,0.916,192.0,0.0,0.0,0.0,0.0,0.0,0.0,0.0,0.0,0.0,1747538297.8318355,0.0, 2025-05-17 20:18:17.831
156.0,-711312.7066269764,-519234.1529410068,-710792.4474230347,-711070.86075197,-644194.3519347134,-656110.0669038376,-632034.8241370707,-596540.253942043,0.35,-0.242,0.916,192.0,0.0,0.0,0.0,0.0,0.0,0.0,0.0,0.0,0.0,1747538297.8318567,0.0, 2025-05-17 20:18:17.831
157.0,-711349.2740809052,-519186.67783578375,-710743.3629922108,-710973.7647740562,-644182.8184345744,-656124.0143923777,-632083.1039050942,-596578.8777564619,0.35,-0.242,0.916,192.0,0.0,0.0,0.0,0.0,0.0,0.0,0.0,0.0,0.0,1747538297.8318782,0.0, 2025-05-17 20:18:17.831
158.0,-711326.4753015608,-519159.5875215039,-710687.4836310726,-710781.1821438292,-644190.1498067558,-656156.6479392825,-632151.5002431275,-596637.349919957,0.35,-0.242,0.916,192.0,0.0,0.0,0.0,0.0,0.0,0.0,0.0,0.0,0.0,1747538297.8319197,0.0, 2025-05-17 20:18:17.831
160.0,-711127.5447759086,-519204.3804173924,-710625.5245954425,-710455.5619306043,-644263.1953076357,-656280.2083826314,-632353.1129781143,-596816.5215035107,0.35,-0.242,0.916,192.0,0.0,0.0,0.0,0.0,0.0,0.0,0.0,0.0,0.0,1747538297.8319416,0.0, 2025-05-17 20:18:17.831
161.0,-711130.0481712876,-519125.4340559762,-710565.71132728,-710214.3419044426,-644220.1905513038,-656261.6117312446,-632372.782513235,-596823.6740617364,0.356,-0.25,0.916,192.0,11.0,32.0,248.0,48.0,28.0,160.0,0.0,0.0,0.0,1747538297.8319633,0.0, 2025-05-17 20:18:17.831
162.0,-711170.2813113071,-519101.025951031,-710482.0263960393,-710032.4881115542,-644236.3732142894,-656300.5037665968,-632452.3547234959,-596891.6233648806,0.356,-0.25,0.916,192.0,0.0,0.0,0.0,0.0,0.0,0.0,0.0,0.0,0.0,1747538297.831986,0.0, 2025-05-17 20:18:17.831
163.0,-711121.8227293281,-519154.04428887897,-710461.9098260296,-709902.4903658022,-644316.2136454837,-656402.6959422465,-632595.6741089433,-597025.5550176568,0.356,-0.25,0.916,192.0,0.0,0.0,0.0,0.0,0.0,0.0,0.0,0.0,0.0,1747538297.8320074,0.0, 2025-05-17 20:18:17.832
164.0,-710985.298274195,-519150.64682372176,-710453.7737910479,-709430.6003368617,-644326.4954479332,-656435.1506751956,-632667.1996912003,-597087.5140532869,0.356,-0.25,0.916,192.0,0.0,0.0,0.0,0.0,0.0,0.0,0.0,0.0,0.0,1747538297.832029,0.0, 2025-05-17 20:18:17.832
165.0,-710945.6909830202,-519060.9716249671,-710396.8215461757,-709024.9608784867,-644265.7881099925,-656398.7620352224,-632665.5903655995,-597077.94750666,0.356,-0.25,0.916,192.0,0.0,0.0,0.0,0.0,0.0,0.0,0.0,0.0,0.0,1747538297.8320506,0.0, 2025-05-17 20:18:17.832
166.0,-710960.800762272,-518997.9397056031,-710347.5583013962,-709073.4194604659,-644243.9728074042,-656404.4840818029,-632704.7506218852,-597109.8657977422,0.356,-0.25,0.916,192.0,0.0,0.0,0.0,0.0,0.0,0.0,0.0,0.0,0.0,1747538297.8320715,0.0, 2025-05-17 20:18:17.832
167.0,-710919.315924563,-519022.0795896149,-710306.7887195097,-709224.2490320503,-644299.9415755203,-656486.7385013985,-632822.4996116757,-597220.2834153514,0.356,-0.25,0.916,192.0,0.0,0.0,0.0,0.0,0.0,0.0,0.0,0.0,0.0,1747538297.8320923,0.0, 2025-05-17 20:18:17.832
168.0,-710764.9994808435,-518976.8396588373,-710275.9433121614,-709282.0059397229,-644270.7949007505,-656484.1456990417,-632852.897984135,-597243.7974505184,0.356,-0.25,0.916,192.0,0.0,0.0,0.0,0.0,0.0,0.0,0.0,0.0,0.0,1747538297.8321135,0.0, 2025-05-17 20:18:17.832
169.0,-710716.9879337535,-518861.0576225589,-710177.4168226024,-709282.900009501,-644185.9476787982,-656427.8193030142,-632829.383948968,-597210.985089658,0.356,-0.25,0.916,192.0,0.0,0.0,0.0,0.0,0.0,0.0,0.0,0.0,0.0,1747538297.8321347,0.0, 2025-05-17 20:18:17.832
170.0,-710709.9247825056,-518765.7497842014,-710134.7696941817,-709312.8513470711,-644130.1577246378,-656400.2819538453,-632838.0564258166,-597208.1240663676,0.356,-0.25,0.916,192.0,0.0,0.0,0.0,0.0,0.0,0.0,0.0,0.0,0.0,1747538297.832156,0.0, 2025-05-17 20:18:17.832
171.0,-710741.3960386987,-518752.07051659474,-710080.5890656221,-709430.421522906,-644158.6785505627,-656455.1778382275,-632927.7316245714,-597288.8585673403,0.356,-0.25,0.916,192.0,0.0,0.0,0.0,0.0,0.0,0.0,0.0,0.0,0.0,1747538297.832177,0.0, 2025-05-17 20:18:17.832
172.0,-710602.6364091202,-518739.82176063326,-710046.2567861386,-709530.2891171323,-644169.4073879013,-656491.2088502895,-632999.5254277617,-597354.1256611497,0.356,-0.246,0.912,192.0,11.0,32.0,248.0,80.0,28.0,128.0,0.0,0.0,0.0,1747538297.8321984,0.0, 2025-05-17 20:18:17.832
173.0,-710477.6454541261,-518667.1338876646,-709975.8934945933,-709562.0285942589,-644112.1869220957,-656460.3634429412,-633002.4758580299,-597351.0858239038,0.356,-0.246,0.912,192.0,0.0,0.0,0.0,0.0,0.0,0.0,0.0,0.0,0.0,1747538297.832235,0.0, 2025-05-17 20:18:17.832
174.0,-710464.5920353642,-518566.0145957488,-709908.0335984271,-709672.8932467572,-644047.4562701532,-656422.5442913228,-632998.0949161167,-597338.5688470089,0.356,-0.246,0.912,192.0,0.0,0.0,0.0,0.0,0.0,0.0,0.0,0.0,0.0,1747538297.8322573,0.0, 2025-05-17 20:18:17.832
175.0,-710510.0107800973,-518562.7959445472,-709872.9860631211,-710153.0087176572,-644088.6728869287,-656486.5596874428,-633098.0519173208,-597429.2275225195,0.356,-0.246,0.912,192.0,0.0,0.0,0.0,0.0,0.0,0.0,0.0,0.0,0.0,1747538297.8322785,0.0, 2025-05-17 20:18:17.832
176.0,-710419.5309185423,-518598.2905147423,-709847.5944814199,-710176.2545318907,-644148.2179341577,-656570.1552117056,-633220.0924420467,-597540.8074308404,0.356,-0.246,0.912,192.0,0.0,0.0,0.0,0.0,0.0,0.0,0.0,0.0,0.0,1747538297.8323236,0.0, 2025-05-17 20:18:17.832
177.0,-710322.3455336506,-518578.71038659936,-709802.8015855314,-709972.4066224584,-644142.7641085106,-656590.8082235823,-633279.7268962535,-597588.3719430413,0.356,-0.246,0.912,192.0,0.0,0.0,0.0,0.0,0.0,0.0,0.0,0.0,0.0,1747538297.832363,0.0, 2025-05-17 20:18:17.832
178.0,-710336.8294640577,-518511.5657462556,-709769.8998176933,-709740.9319568792,-644108.8788639163,-656584.0132932679,-633308.2477221785,-597607.3262223394,0.356,-0.246,0.912,192.0,0.0,0.0,0.0,0.0,0.0,0.0,0.0,0.0,0.0,1747538297.832399,0.0, 2025-05-17 20:18:17.832
179.0,-710375.4532784765,-518534.27511862223,-709697.9272005472,-709601.3676645003,-644169.4967948791,-656668.8605152203,-633431.0929097049,-597720.2472353277,0.356,-0.246,0.912,192.0,0.0,0.0,0.0,0.0,0.0,0.0,0.0,0.0,0.0,1747538297.8324337,0.0, 2025-05-17 20:18:17.832
180.0,-710292.3047891028,-518608.4829102139,-709710.8912123312,-709493.6322562257,-644262.569458791,-656784.6425514987,-633586.8398650694,-597865.4441673093,0.356,-0.246,0.912,192.0,0.0,0.0,0.0,0.0,0.0,0.0,0.0,0.0,0.0,1747538297.8324697,0.0, 2025-05-17 20:18:17.832
181.0,-710190.1126134531,-518647.3749455661,-709666.8135722654,-709344.6802311755,-644312.4585524152,-656860.1914477577,-633700.2079129467,-597968.7986336707,0.356,-0.246,0.912,192.0,0.0,0.0,0.0,0.0,0.0,0.0,0.0,0.0,0.0,1747538297.8325045,0.0, 2025-05-17 20:18:17.832
182.0,-710163.6481480179,-518585.1476890025,-709586.6155131598,-709112.1326818625,-644275.8016915085,-656851.2507499756,-633727.119413271,-597985.0707036342,0.356,-0.238,0.92,192.0,11.0,32.0,248.0,144.0,28.0,192.0,0.0,0.0,0.0,1747538297.8325405,0.0, 2025-05-17 20:18:17.832
183.0,-710191.7219390539,-518545.898025739,-709493.9004771592,-708886.3800628639,-644272.6724472848,-656875.1224130539,-633785.6809837439,-598036.0326809923,0.356,-0.238,0.92,192.0,0.0,0.0,0.0,0.0,0.0,0.0,0.0,0.0,0.0,1747538298.3088143,0.0, 2025-05-17 20:18:18.308
184.0,-710113.133205549,-518564.8523050371,-709486.3902910221,-708396.698045337,-644314.8725408164,-656943.5187510871,-633888.9460431273,-598129.7311937489,0.356,-0.238,0.92,192.0,0.0,0.0,0.0,0.0,0.0,0.0,0.0,0.0,0.0,1747538298.3089297,0.0, 2025-05-17 20:18:18.308
185.0,-709989.3045412665,-518486.5317924657,-709476.1084885728,-708078.3197973156,-644257.026226166,-656912.3157158275,-633890.8235896616,-598123.1150773901,0.356,-0.238,0.92,192.0,0.0,0.0,0.0,0.0,0.0,0.0,0.0,0.0,0.0,1747538298.309004,0.0, 2025-05-17 20:18:18.309
186.0,-709948.2667384467,-518355.4611629798,-709400.0231504468,-708064.2829017977,-644163.5065273651,-656845.4392964172,-633857.117159023,-598083.5971931932,0.356,-0.238,0.92,192.0,0.0,0.0,0.0,0.0,0.0,0.0,0.0,0.0,0.0,1747538298.3090787,0.0, 2025-05-17 20:18:18.309
187.0,-709939.2366336867,-518281.4321853438,-709322.954335565,-708119.8940420025,-644130.2471316155,-656838.1973312136,-633883.9392523693,-598104.6078329812,0.356,-0.238,0.92,192.0,0.0,0.0,0.0,0.0,0.0,0.0,0.0,0.0,0.0,1747538298.3091533,0.0, 2025-05-17 20:18:18.309
188.0,-709854.2105977787,-518289.29999939207,-709302.5695446217,-708246.0472877083,-644166.9039925223,-656900.9610296441,-633982.108114017,-598195.2665084918,0.356,-0.238,0.92,192.0,0.0,0.0,0.0,0.0,0.0,0.0,0.0,0.0,0.0,1747538298.3093257,0.0, 2025-05-17 20:18:18.309
189.0,-709740.037887101,-518253.09017337445,-709236.0507531227,-708316.8576141427,-644146.6086085569,-656906.5936692469,-634023.9505796374,-598230.0458228643,0.356,-0.238,0.92,192.0,0.0,0.0,0.0,0.0,0.0,0.0,0.0,0.0,0.0,1747538298.309405,0.0, 2025-05-17 20:18:18.309
190.0,-709725.2857357605,-518153.0437651925,-709180.7078338513,-708337.9576609085,-644081.7885496365,-656868.8639246064,-634020.7319284359,-598220.658090193,0.356,-0.238,0.92,192.0,0.0,0.0,0.0,0.0,0.0,0.0,0.0,0.0,0.0,1747538298.3094504,0.0, 2025-05-17 20:18:18.309
191.0,-709729.1302358068,-518071.41519444174,-709104.5330887476,-708385.8798010206,-644040.8401537944,-656854.9164360663,-634041.3849403126,-598235.2314275779,0.356,-0.238,0.92,192.0,0.0,0.0,0.0,0.0,0.0,0.0,0.0,0.0,0.0,1747538298.3094926,0.0, 2025-05-17 20:18:18.309
192.0,-709715.003933311,-518067.9283223067,-709081.8237163811,-708510.781349037,-644073.2948867434,-656912.6733437388,-634137.2292205369,-598319.721021619,0.356,-0.246,0.916,192.0,11.0,32.0,248.0,80.0,28.0,160.0,0.0,0.0,0.0,1747538298.3095348,0.0, 2025-05-17 20:18:18.309
193.0,-709548.7963615414,-518048.3481941639,-709017.0930644386,-708601.4400245476,-644070.2550494976,-656935.561530061,-634198.4730003445,-598369.252487332,0.356,-0.246,0.916,192.0,0.0,0.0,0.0,0.0,0.0,0.0,0.0,0.0,0.0,1747538298.30958,0.0, 2025-05-17 20:18:18.309
194.0,-709473.5156862158,-517966.18318154616,-708965.6840521913,-708648.736315815,-644010.2629673795,-656903.2856110675,-634200.8869887457,-598361.7423011949,0.356,-0.246,0.916,192.0,0.0,0.0,0.0,0.0,0.0,0.0,0.0,0.0,0.0,1747538298.3096223,0.0, 2025-05-17 20:18:18.309
