%OpenBCI Raw EXG Data
%Number of channels = 8
%Sample Rate = 250 Hz
%Board = OpenBCI_GUI$BoardCytonSerial
Sample Index, EXG Channel 0, EXG Channel 1, EXG Channel 2, EXG Channel 3, EXG Channel 4, EXG Channel 5, EXG Channel 6, EXG Channel 7, Accel Channel 0, Accel Channel 1, Accel Channel 2, Not Used, Digital Channel 0 (D11), Digital Channel 1 (D12), Digital Channel 2 (D13), Digital Channel 3 (D17), Not Used, Digital Channel 4 (D18), Analog Channel 0, Analog Channel 1, Analog Channel 2, Timestamp, Marker Channel, Timestamp (Formatted)
136.0, -14058.35319260993, -22745.31397167611, -23352.297944104426, -23295.345699232304, -392803.0303481854, -462759.8777723167, -286658.6192439341, -346719.5447349006, 0.0, 0.0, 0.0, 192.0, 0.0, 0.0, 0.0, 0.0, 0.0, 0.0, 0.0, 0.0, 0.0, 1.7475192355661745E9, 0.0, 2025-05-17 15:00:35.566
137.0, -14477.314290680206, -22736.552087849628, -23344.6089440118, -23284.885082827223, -392796.235417871, -462749.238341956, -286652.5395694422, -346713.82268832, 0.0, 0.0, 0.0, 192.0, 0.0, 0.0, 0.0, 0.0, 0.0, 0.0, 0.0, 0.0, 0.0, 1.7475192355662243E9, 0.0, 2025-05-17 15:00:35.566
138.0, -14302.97068392881, -22732.618180825495, -23339.691560231633, -23280.95117580309, -392791.58625502425, -462746.28791168786, -286648.69506939594, -346709.7099673402, 0.0, 0.0, 0.0, 192.0, 0.0, 0.0, 0.0, 0.0, 0.0, 0.0, 0.0, 0.0, 0.0, 1.7475192355662596E9, 0.0, 2025-05-17 15:00:35.566
139.0, -13880.165085812223, -22737.44615762784, -23343.17843236666, -23287.299071228394, -392794.3578713367, -462752.4569931575, -286651.1090577971, -346713.1968394753, 0.0, 0.0, 0.0, 192.0, 0.0, 0.0, 0.0, 0.0, 0.0, 0.0, 0.0, 0.0, 0.0, 1.7475192355662923E9, 0.0, 2025-05-17 15:00:35.566
140.0, -13958.306784427976, -22737.177936694377, -23343.446653300125, -23287.03085029493, -392793.9108364476, -462751.38410942367, -286651.19846477493, -346714.00150227564, -0.19, 0.962, 0.258, 192.0, 250.0, 16.0, 30.0, 16.0, 8.0, 16.0, 0.0, 0.0, 0.0, 1.7475192355663247E9, 0.0, 2025-05-17 15:00:35.566
141.0, -14382.453487211882, -22738.25082042823, -23346.03945565694, -23287.03085029493, -392796.235417871, -462750.7582605789, -286654.59592993214, -346717.9354092998, -0.19, 0.962, 0.258, 192.0, 0.0, 0.0, 0.0, 0.0, 0.0, 0.0, 0.0, 0.0, 0.0, 1.7475192355663805E9, 0.0, 2025-05-17 15:00:35.566
142.0, -14340.432207635906, -22731.992331980746, -23340.406816054205, -23281.398210692194, -392790.9604061795, -462746.0196907544, -286649.67854615196, -346713.37565343094, -0.19, 0.962, 0.258, 192.0, 0.0, 0.0, 0.0, 0.0, 0.0, 0.0, 0.0, 0.0, 0.0, 1.7475192355664504E9, 0.0, 2025-05-17 15:00:35.566
143.0, -13875.426515987698, -22729.041901712644, -23335.7576532075, -23279.61007113577, -392786.04302239936, -462743.8739232867, -286644.7611623718, -346708.6370836064, -0.19, 0.962, 0.258, 192.0, 0.0, 0.0, 0.0, 0.0, 0.0, 0.0, 0.0, 0.0, 0.0, 1.7475192355665245E9, 0.0, 2025-05-17 15:00:35.566
144.0, -13864.340050737865, -22733.69106455935, -23339.602153253814, -23283.543978159905, -392788.9040456896, -462747.18198146607, -286648.4268484625, -346713.0180255196, -0.19, 0.962, 0.258, 192.0, 0.0, 0.0, 0.0, 0.0, 0.0, 0.0, 0.0, 0.0, 0.0, 1.747519235566594E9, 0.0, 2025-05-17 15:00:35.566
145.0, -14266.49263697775, -22735.658018071415, -23342.910211433198, -23284.438047938114, -392791.8544759577, -462747.89723728865, -286652.18194153096, -346718.20363023324, -0.19, 0.962, 0.258, 192.0, 0.0, 0.0, 0.0, 0.0, 0.0, 0.0, 0.0, 0.0, 0.0, 1.7475192355666652E9, 0.0, 2025-05-17 15:00:35.566
146.0, -14367.254300982273, -22737.088529716555, -23344.877164945265, -23285.779152605435, -392793.64261551417, -462749.4171559116, -286654.148895043, -346721.77990934614, -0.19, 0.962, 0.258, 192.0, 0.0, 0.0, 0.0, 0.0, 0.0, 0.0, 0.0, 0.0, 0.0, 1.747519235566806E9, 0.0, 2025-05-17 15:00:35.566
147.0, -13897.599446487362, -22735.658018071415, -23342.016141654985, -23286.136780516717, -392790.3345573348, -462749.50656288944, -286651.0196508193, -346719.00829303364, -0.19, 0.962, 0.258, 192.0, 0.0, 0.0, 0.0, 0.0, 0.0, 0.0, 0.0, 0.0, 0.0, 1.7475192355668771E9, 0.0, 2025-05-17 15:00:35.566
148.0, -13796.033119682446, -22737.44615762784, -23343.17843236666, -23288.193141006606, -392790.5133712904, -462750.8476675568, -286652.18194153096, -346720.5282116566, -0.19, 0.962, 0.258, 192.0, 0.0, 0.0, 0.0, 0.0, 0.0, 0.0, 0.0, 0.0, 0.0, 1.7475192355669477E9, 0.0, 2025-05-17 15:00:35.566
149.0, -14159.293670570098, -22732.707587803317, -23339.512746275992, -23282.024059536943, -392786.66887124407, -462744.05273724237, -286649.0526973072, -346717.9354092998, -0.19, 0.962, 0.258, 192.0, 0.0, 0.0, 0.0, 0.0, 0.0, 0.0, 0.0, 0.0, 0.0, 1.7475192355670176E9, 0.0, 2025-05-17 15:00:35.567
150.0, -14387.9967198368, -22728.684273801362, -23336.204688096608, -23277.55371064588, -392784.07606888725, -462739.58238835126, -286646.7281158839, -346716.1472697434, -0.184, 0.968, 0.26, 192.0, 250.0, 64.0, 30.0, 64.0, 8.0, 32.0, 0.0, 0.0, 0.0, 1.7475192355670857E9, 0.0, 2025-05-17 15:00:35.567
151.0, -13950.170749446244, -22729.488936601752, -23335.221211340573, -23279.52066415795, -392783.0031851534, -462742.08578373026, -286645.9234530835, -346715.96845578775, -0.184, 0.968, 0.26, 192.0, 0.0, 0.0, 0.0, 0.0, 0.0, 0.0, 0.0, 0.0, 0.0, 1.7475192355673304E9, 0.0, 2025-05-17 15:00:35.567
152.0, -13754.10124708429, -22740.12836696248, -23345.324199834373, -23290.696536385603, -392791.0498131573, -462752.8146210688, -286654.148895043, -346726.16085125937, -0.184, 0.968, 0.26, 192.0, 0.0, 0.0, 0.0, 0.0, 0.0, 0.0, 0.0, 0.0, 0.0, 1.747519235567385E9, 0.0, 2025-05-17 15:00:35.567
153.0, -14056.743867009149, -22746.02922749868, -23351.67209525968, -23295.345699232304, -392796.5036388044, -462756.6591211151, -286660.4073834905, -346733.49222344067, -0.184, 0.968, 0.26, 192.0, 0.0, 0.0, 0.0, 0.0, 0.0, 0.0, 0.0, 0.0, 0.0, 1.7475192355674312E9, 0.0, 2025-05-17 15:00:35.567
154.0, -14387.639091925514, -22733.78047153717, -23340.04918814292, -23281.93465255912, -392786.4006503106, -462743.3374814198, -286650.7514298858, -346724.01508379163, -0.184, 0.968, 0.26, 192.0, 0.0, 0.0, 0.0, 0.0, 0.0, 0.0, 0.0, 0.0, 0.0, 1.7475192355674627E9, 0.0, 2025-05-17 15:00:35.567
155.0, -14019.72937819116, -22739.50251811773, -23345.05597890091, -23288.908396829178, -392790.3345573348, -462750.31122568983, -286654.8641508656, -346729.2900954831, -0.184, 0.968, 0.26, 192.0, 0.0, 0.0, 0.0, 0.0, 0.0, 0.0, 0.0, 0.0, 0.0, 1.7475192355674946E9, 0.0, 2025-05-17 15:00:35.567
156.0, -13731.391874717698, -22742.631762341472, -23347.022932412976, -23292.395268964206, -392791.13922013517, -462753.5298768914, -286656.2052555329, -346730.89942108386, -0.184, 0.968, 0.26, 192.0, 0.0, 0.0, 0.0, 0.0, 0.0, 0.0, 0.0, 0.0, 0.0, 1.7475192355675251E9, 0.0, 2025-05-17 15:00:35.567
157.0, -13962.777133319038, -22749.426692655885, -23354.53311854996, -23298.474943456047, -392797.0400806714, -462759.0731095163, -286662.73196491384, -346739.30367699906, -0.184, 0.968, 0.26, 192.0, 0.0, 0.0, 0.0, 0.0, 0.0, 0.0, 0.0, 0.0, 0.0, 1.747519235567556E9, 0.0, 2025-05-17 15:00:35.567
158.0, -14360.906405556967, -22754.25466945823, -23360.6127930418, -23301.872408613257, -392801.8680574737, -462762.3811676957, -286668.63282545004, -346746.90327011386, -0.184, 0.968, 0.26, 192.0, 0.0, 0.0, 0.0, 0.0, 0.0, 0.0, 0.0, 0.0, 0.0, 1.7475192355675924E9, 0.0, 2025-05-17 15:00:35.567
159.0, -14095.814716317025, -22759.529681149685, -23365.261955888505, -23307.86267612728, -392805.98077845346, -462768.90787707665, -286672.656139452, -346752.0888748275, -0.184, 0.968, 0.26, 192.0, 0.0, 0.0, 0.0, 0.0, 0.0, 0.0, 0.0, 0.0, 0.0, 1.7475192355676332E9, 0.0, 2025-05-17 15:00:35.567
160.0, -13726.474490937531, -22766.50342541974, -23370.984002469064, -23316.356339020294, -392810.719348278, -462776.8650981027, -286677.39470927656, -346758.0791423415, -0.182, 0.966, 0.256, 192.0, 250.0, 80.0, 30.0, 48.0, 8.0, 0.0, 0.0, 0.0, 0.0, 1.747519235567693E9, 0.0, 2025-05-17 15:00:35.567
161.0, -13874.532446209485, -22768.202157998345, -23373.040362958953, -23317.161001820685, -392811.5240110784, -462776.8650981027, -286678.9146278995, -346760.5825377205, -0.182, 0.966, 0.256, 192.0, 0.0, 0.0, 0.0, 0.0, 0.0, 0.0, 0.0, 0.0, 0.0, 1.7475192355677865E9, 0.0, 2025-05-17 15:00:35.567
162.0, -14305.652893263448, -22759.350867194044, -23365.261955888505, -23307.147420304707, -392804.3714528527, -462766.40448169765, -286672.4773254964, -346754.41345625086, -0.182, 0.966, 0.256, 192.0, 0.0, 0.0, 0.0, 0.0, 0.0, 0.0, 0.0, 0.0, 0.0, 1.7475192355678413E9, 0.0, 2025-05-17 15:00:35.567
163.0, -14172.61531026546, -22759.708495105326, -23365.261955888505, -23307.952083105098, -392804.19263889705, -462767.20914449805, -286672.656139452, -346755.6651539404, -0.182, 0.966, 0.256, 192.0, 0.0, 0.0, 0.0, 0.0, 0.0, 0.0, 0.0, 0.0, 0.0, 1.7475192355678897E9, 0.0, 2025-05-17 15:00:35.567
164.0, -13746.233433036023, -22770.9737743108, -23375.364944382305, -23320.37965302225, -392812.2392669009, -462779.3684934817, -286681.0603953672, -346765.4999215007, -0.182, 0.966, 0.256, 192.0, 0.0, 0.0, 0.0, 0.0, 0.0, 0.0, 0.0, 0.0, 0.0, 1.747519235567938E9, 0.0, 2025-05-17 15:00:35.567
165.0, -13811.679340801162, -22768.0233440427, -23372.235700158562, -23316.445745998117, -392808.30535987683, -462774.89814459067, -286677.84174416563, -346762.4600842548, -0.182, 0.966, 0.256, 192.0, 0.0, 0.0, 0.0, 0.0, 0.0, 0.0, 0.0, 0.0, 0.0, 1.7475192355679865E9, 0.0, 2025-05-17 15:00:35.567
166.0, -14238.86588083099, -22760.870785817002, -23366.42424660018, -23307.86267612728, -392803.1197551632, -462765.8680398307, -286672.92436038546, -346757.9897353637, -0.182, 0.966, 0.256, 192.0, 0.0, 0.0, 0.0, 0.0, 0.0, 0.0, 0.0, 0.0, 0.0, 1.7475192355681431E9, 0.0, 2025-05-17 15:00:35.568
167.0, -14242.173939010376, -22760.06612301661, -23365.887804733255, -23307.41564123817, -392802.8515342297, -462765.7786328529, -286672.83495340764, -346758.8838051419, -0.182, 0.966, 0.256, 192.0, 0.0, 0.0, 0.0, 0.0, 0.0, 0.0, 0.0, 0.0, 0.0, 1.7475192355681915E9, 0.0, 2025-05-17 15:00:35.568
168.0, -13776.63180549524, -22755.327553192088, -23359.539909307947, -23304.196990036606, -392796.59304578224, -462762.5599816513, -286666.665871938, -346752.5359097166, -0.182, 0.966, 0.256, 192.0, 0.0, 0.0, 0.0, 0.0, 0.0, 0.0, 0.0, 0.0, 0.0, 1.747519235568226E9, 0.0, 2025-05-17 15:00:35.568
169.0, -13742.47833996753, -22750.231355456275, -23354.08608366085, -23299.19019927862, -392790.78159222385, -462756.5697141373, -286661.7484881578, -346747.08208406955, -0.182, 0.966, 0.256, 192.0, 0.0, 0.0, 0.0, 0.0, 0.0, 0.0, 0.0, 0.0, 0.0, 1.7475192355682576E9, 0.0, 2025-05-17 15:00:35.568
170.0, -14136.494891225684, -22747.817367055104, -23352.744978993534, -23295.166885276663, -392788.99345266743, -462752.18877222406, -286660.675604424, -346746.9926770917, -0.182, 0.972, 0.26, 192.0, 250.0, 80.0, 30.0, 96.0, 8.0, 32.0, 0.0, 0.0, 0.0, 1.747519235568312E9, 0.0, 2025-05-17 15:00:35.568
171.0, -14273.10875333652, -22747.906774032926, -23353.460234816102, -23294.8986643432, -392789.2616736009, -462752.09936524625, -286661.48026722437, -346748.9596306038, -0.182, 0.972, 0.26, 192.0, 0.0, 0.0, 0.0, 0.0, 0.0, 0.0, 0.0, 0.0, 0.0, 1.7475192355683851E9, 0.0, 2025-05-17 15:00:35.568
172.0, -13807.566619821386, -22751.572460123596, -23355.9636301951, -23300.08426905683, -392790.9604061795, -462757.0167490264, -286663.17899980297, -346751.1948050493, -0.182, 0.972, 0.26, 192.0, 0.0, 0.0, 0.0, 0.0, 0.0, 0.0, 0.0, 0.0, 0.0, 1.747519235568441E9, 0.0, 2025-05-17 15:00:35.568
173.0, -13675.512513579431, -22753.986448524767, -23358.109397662807, -23302.94529234711, -392791.7650689799, -462758.5366676494, -286664.162476559, -346753.1617585614, -0.182, 0.972, 0.26, 192.0, 0.0, 0.0, 0.0, 0.0, 0.0, 0.0, 0.0, 0.0, 0.0, 1.747519235568494E9, 0.0, 2025-05-17 15:00:35.568
174.0, -14017.67301770127, -22761.854262573037, -23366.692467533645, -23309.829629639346, -392799.3646620947, -462764.9739700525, -286672.656139452, -346763.4435610108, -0.182, 0.972, 0.26, 192.0, 0.0, 0.0, 0.0, 0.0, 0.0, 0.0, 0.0, 0.0, 0.0, 1.7475192355685472E9, 0.0, 2025-05-17 15:00:35.568
175.0, -14270.784171913168, -22762.74833235125, -23368.570014067893, -23310.366071506272, -392800.97398769547, -462765.4210049416, -286674.62309296406, -346767.1986540793, -0.182, 0.972, 0.26, 192.0, 0.0, 0.0, 0.0, 0.0, 0.0, 0.0, 0.0, 0.0, 0.0, 1.7475192355686004E9, 0.0, 2025-05-17 15:00:35.568
176.0, -13843.061190016413, -22761.40722768393, -23365.61958379979, -23310.366071506272, -392797.7553364939, -462765.242190986, -286671.5832557182, -346764.2482238112, -0.182, 0.972, 0.26, 192.0, 0.0, 0.0, 0.0, 0.0, 0.0, 0.0, 0.0, 0.0, 0.0, 1.7475192355686965E9, 0.0, 2025-05-17 15:00:35.568
177.0, -13607.920838346583, -22763.55299515164, -23366.87128148929, -23312.95887386309, -392797.57652253826, -462766.9409235646, -286671.94088362943, -346764.874072656, -0.182, 0.972, 0.26, 192.0, 0.0, 0.0, 0.0, 0.0, 0.0, 0.0, 0.0, 0.0, 0.0, 1.7475192355687504E9, 0.0, 2025-05-17 15:00:35.568
178.0, -13882.13203932429, -22763.55299515164, -23367.7653512675, -23311.61776919577, -392797.218894627, -462765.3315979638, -286672.656139452, -346766.5728052346, -0.182, 0.972, 0.26, 192.0, 0.0, 0.0, 0.0, 0.0, 0.0, 0.0, 0.0, 0.0, 0.0, 1.7475192355688045E9, 0.0, 2025-05-17 15:00:35.568
179.0, -14228.941706292833, -22751.661867101415, -23356.32125810638, -23298.474943456047, -392787.29472008883, -462751.6523303572, -286663.17899980297, -346757.0956655855, -0.182, 0.972, 0.26, 192.0, 0.0, 0.0, 0.0, 0.0, 0.0, 0.0, 0.0, 0.0, 0.0, 1.7475192355688632E9, 0.0, 2025-05-17 15:00:35.568
180.0, -13880.969748612613, -22751.572460123596, -23355.248374372528, -23299.458420212082, -392785.5065805324, -462752.6358071132, -286662.0167090913, -346755.4863399847, -0.176, 0.972, 0.268, 192.0, 250.0, 128.0, 30.0, 96.0, 8.0, 96.0, 0.0, 0.0, 0.0, 1.7475192355689127E9, 0.0, 2025-05-17 15:00:35.568
181.0, -13569.028802994348, -22762.658925373427, -23365.708990777614, -23311.796583151412, -392793.9108364476, -462764.4375281856, -286670.42096500646, -346765.5893284785, -0.176, 0.972, 0.268, 192.0, 0.0, 0.0, 0.0, 0.0, 0.0, 0.0, 0.0, 0.0, 0.0, 1.7475192355689945E9, 0.0, 2025-05-17 15:00:35.568
182.0, -13777.972910162558, -22765.78816959717, -23369.19586291264, -23314.121164574764, -392796.0566039153, -462765.51041191944, -286673.3713952746, -346769.344421547, -0.176, 0.972, 0.268, 192.0, 0.0, 0.0, 0.0, 0.0, 0.0, 0.0, 0.0, 0.0, 0.0, 1.7475192355690436E9, 0.0, 2025-05-17 15:00:35.569
183.0, -14186.026356938644, -22759.529681149685, -23363.920851221188, -23306.700385415603, -392791.13922013517, -462757.732004849, -286668.90104638354, -346765.7681424342, -0.176, 0.972, 0.268, 192.0, 0.0, 0.0, 0.0, 0.0, 0.0, 0.0, 0.0, 0.0, 0.0, 1.7475192355690925E9, 0.0, 2025-05-17 15:00:35.569
184.0, -13953.836435536914, -22764.268250974208, -23368.212386156607, -23312.064804084876, -392794.3578713367, -462763.09642351826, -286672.20910456293, -346770.5961192365, -0.176, 0.972, 0.268, 192.0, 0.0, 0.0, 0.0, 0.0, 0.0, 0.0, 0.0, 0.0, 0.0, 1.7475192355691416E9, 0.0, 2025-05-17 15:00:35.569
185.0, -13565.899558770605, -22772.583099911582, -23375.00731647102, -23321.541943733926, -392799.09644116124, -462771.50067943346, -286677.5735232322, -346776.7652007062, -0.176, 0.972, 0.268, 192.0, 0.0, 0.0, 0.0, 0.0, 0.0, 0.0, 0.0, 0.0, 0.0, 1.7475192355692945E9, 0.0, 2025-05-17 15:00:35.569
186.0, -13694.109164966247, -22779.020402314713, -23381.53402585197, -23327.263990314485, -392804.10323191923, -462776.41806321364, -286683.1167558571, -346783.82835195406, -0.176, 0.972, 0.268, 192.0, 0.0, 0.0, 0.0, 0.0, 0.0, 0.0, 0.0, 0.0, 0.0, 1.7475192355693464E9, 0.0, 2025-05-17 15:00:35.569
187.0, -14127.822414377024, -22782.864902361027, -23387.166665454708, -23329.588571737837, -392808.48417383246, -462778.3850167257, -286688.03413963725, -346790.53387529065, -0.176, 0.972, 0.268, 192.0, 0.0, 0.0, 0.0, 0.0, 0.0, 0.0, 0.0, 0.0, 0.0, 1.7475192355693965E9, 0.0, 2025-05-17 15:00:35.569
188.0, -14031.888727174846, -22785.815332629125, -23390.29590967845, -23333.075443872865, -392810.98756921146, -462782.22951677203, -286690.53753501625, -346794.1995613813, -0.176, 0.972, 0.268, 192.0, 0.0, 0.0, 0.0, 0.0, 0.0, 0.0, 0.0, 0.0, 0.0, 1.7475192355695293E9, 0.0, 2025-05-17 15:00:35.569
189.0, -13593.526314917364, -22788.765762897227, -23391.815828301413, -23337.366978808284, -392811.3451971227, -462786.25283077394, -286691.43160479446, -346794.9148172039, -0.176, 0.972, 0.268, 192.0, 0.0, 0.0, 0.0, 0.0, 0.0, 0.0, 0.0, 0.0, 0.0, 1.747519235569586E9, 0.0, 2025-05-17 15:00:35.569
190.0, -13634.74293169295, -22785.100076806557, -23388.23954918856, -23333.52247876197, -392806.9642552095, -462781.24604001595, -286687.3188838147, -346791.24913111323, -0.17400000000000002, 0.972, 0.258, 192.0, 250.0, 144.0, 30.0, 96.0, 8.0, 16.0, 0.0, 0.0, 0.0, 1.7475192355696547E9, 0.0, 2025-05-17 15:00:35.569
191.0, -14058.889634476858, -22768.291564976163, -23372.235700158562, -23314.389385508228, -392792.3015108468, -462761.7553188509, -286673.0137673633, -346776.7652007062, -0.17400000000000002, 0.972, 0.258, 192.0, 0.0, 0.0, 0.0, 0.0, 0.0, 0.0, 0.0, 0.0, 0.0, 1.7475192355697436E9, 0.0, 2025-05-17 15:00:35.569
192.0, -14101.000321030657, -22769.722076621303, -23374.113246692807, -23316.08811808683, -392793.28498760285, -462762.8282025848, -286674.89131389756, -346779.62622399646, -0.17400000000000002, 0.972, 0.258, 192.0, 0.0, 0.0, 0.0, 0.0, 0.0, 0.0, 0.0, 0.0, 0.0, 1.747519235569792E9, 0.0, 2025-05-17 15:00:35.569
193.0, -13629.825547912784, -22776.159379024433, -23379.38825838426, -23324.04533911292, -392796.1460108931, -462769.9807608105, -286678.646406966, -346783.6495379984, -0.17400000000000002, 0.972, 0.258, 192.0, 0.0, 0.0, 0.0, 0.0, 0.0, 0.0, 0.0, 0.0, 0.0, 1.7475192355698404E9, 0.0, 2025-05-17 15:00:35.569
194.0, -13573.230930951946, -22778.75218138125, -23381.355211896327, -23326.369920536272, -392796.68245276005, -462771.1430515222, -286679.4510697664, -346785.34827057703, -0.17400000000000002, 0.972, 0.258, 192.0, 0.0, 0.0, 0.0, 0.0, 0.0, 0.0, 0.0, 0.0, 0.0, 1.7475192355698905E9, 0.0, 2025-05-17 15:00:35.569
195.0, -13967.694517099204, -22780.98735582678, -23384.395049142247, -23327.442804270126, -392799.18584813905, -462771.41127245565, -286682.31209305674, -346789.8186194681, -0.17400000000000002, 0.972, 0.258, 192.0, 0.0, 0.0, 0.0, 0.0, 0.0, 0.0, 0.0, 0.0, 0.0, 1.7475192355699396E9, 0.0, 2025-05-17 15:00:35.569
196.0, -14148.654240209371, -22780.36150698203, -23384.395049142247, -23326.28051355845, -392799.0070341834, -462770.1595747661, -286682.93794190144, -346791.07031715754, -0.17400000000000002, 0.972, 0.258, 192.0, 0.0, 0.0, 0.0, 0.0, 0.0, 0.0, 0.0, 0.0, 0.0, 1.7475192355700717E9, 0.0, 2025-05-17 15:00:35.570
197.0, -13685.168467184123, -22783.93778609488, -23386.987851499063, -23331.28730431644, -392799.90110396163, -462775.0769585463, -286684.4578605244, -346792.76904973615, -0.17400000000000002, 0.972, 0.258, 192.0, 0.0, 0.0, 0.0, 0.0, 0.0, 0.0, 0.0, 0.0, 0.0, 1.747519235570122E9, 0.0, 2025-05-17 15:00:35.570
198.0, -13531.209651375968, -22786.35177449605, -23388.15014221074, -23333.52247876197, -392799.99051093945, -462776.5968771693, -286684.8154884357, -346794.1995613813, -0.17400000000000002, 0.972, 0.258, 192.0, 0.0, 0.0, 0.0, 0.0, 0.0, 0.0, 0.0, 0.0, 0.0, 1.7475192355702288E9, 0.0, 2025-05-17 15:00:35.570
199.0, -13879.27101603401, -22789.123390808512, -23392.084049234876, -23335.042397384932, -392802.8515342297, -462777.1333190362, -286687.7659187038, -346799.1169451615, -0.17400000000000002, 0.972, 0.258, 192.0, 0.0, 0.0, 0.0, 0.0, 0.0, 0.0, 0.0, 0.0, 0.0, 1.7475192355702772E9, 0.0, 2025-05-17 15:00:35.570
200.0, -14186.115763916465, -22791.537379209683, -23395.21329345862, -23336.47290903007, -392805.71255752, -462778.02738881443, -286691.163383861, -346804.03432894166, -0.18, 0.974, 0.266, 192.0, 250.0, 96.0, 30.0, 112.0, 8.0, 80.0, 0.0, 0.0, 0.0, 1.7475192355705097E9, 0.0, 2025-05-17 15:00:35.570
201.0, -13776.721212473061, -22793.951367610858, -23396.64380510376, -23340.496223032027, -392806.1595924091, -462781.60366792727, -286692.14686061704, -346805.64365454245, -0.18, 0.974, 0.266, 192.0, 0.0, 0.0, 0.0, 0.0, 0.0, 0.0, 0.0, 0.0, 0.0, 1.747519235570564E9, 0.0, 2025-05-17 15:00:35.570
202.0, -13523.96768617245, -22794.308995522144, -23395.749735325546, -23341.122071876773, -392803.9244179636, -462781.7824818829, -286690.53753501625, -346804.1237359195, -0.18, 0.974, 0.266, 192.0, 0.0, 0.0, 0.0, 0.0, 0.0, 0.0, 0.0, 0.0, 0.0, 1.7475192355706117E9, 0.0, 2025-05-17 15:00:35.570
203.0, -13802.023387196468, -22794.666623433426, -23396.8226190594, -23340.675036987668, -392804.0138249414, -462780.2625632599, -286691.25279083883, -346805.8224684981, -0.18, 0.974, 0.266, 192.0, 0.0, 0.0, 0.0, 0.0, 0.0, 0.0, 0.0, 0.0, 0.0, 1.74751923557066E9, 0.0, 2025-05-17 15:00:35.570
204.0, -14194.698833787303, -22794.666623433426, -23398.34253768236, -23339.33393232035, -392805.08670867526, -462778.5638306813, -286692.7727094618, -346808.86230574397, -0.18, 0.974, 0.266, 192.0, 0.0, 0.0, 0.0, 0.0, 0.0, 0.0, 0.0, 0.0, 0.0, 1.7475192355707073E9, 0.0, 2025-05-17 15:00:35.570
205.0, -13880.343899767864, -22797.974681612814, -23400.845933061355, -23344.161909122697, -392807.0536621873, -462783.12358655024, -286694.5608490182, -346811.18688716734, -0.18, 0.974, 0.266, 192.0, 0.0, 0.0, 0.0, 0.0, 0.0, 0.0, 0.0, 0.0, 0.0, 1.7475192355707555E9, 0.0, 2025-05-17 15:00:35.570
206.0, -13537.646953779096, -22801.37214677002, -23402.991700529063, -23348.542851035938, -392807.9477319655, -462787.05749357434, -286695.7231397299, -346812.97502672375, -0.18, 0.974, 0.266, 192.0, 0.0, 0.0, 0.0, 0.0, 0.0, 0.0, 0.0, 0.0, 0.0, 1.7475192355708375E9, 0.0, 2025-05-17 15:00:35.570
207.0, -13736.756293386972, -22805.66368170544, -23407.640863375767, -23351.67209525968, -392810.98756921146, -462789.2926680199, -286699.74645373184, -346818.1606314374, -0.18, 0.974, 0.266, 192.0, 0.0, 0.0, 0.0, 0.0, 0.0, 0.0, 0.0, 0.0, 0.0, 1.7475192355708883E9, 0.0, 2025-05-17 15:00:35.570
208.0, -14181.913635958868, -22797.974681612814, -23401.471781906104, -23342.910211433198, -392805.2655226309, -462779.81552837085, -286694.2926280848, -346813.3326546351, -0.18, 0.974, 0.266, 192.0, 0.0, 0.0, 0.0, 0.0, 0.0, 0.0, 0.0, 0.0, 0.0, 1.7475192355709364E9, 0.0, 2025-05-17 15:00:35.570
209.0, -13985.665319641272, -22803.160286326445, -23405.942130797164, -23348.8110719694, -392808.5735808103, -462785.62698192924, -286698.4053490645, -346818.6970733043, -0.18, 0.974, 0.266, 192.0, 0.0, 0.0, 0.0, 0.0, 0.0, 0.0, 0.0, 0.0, 0.0, 1.747519235570986E9, 0.0, 2025-05-17 15:00:35.570
210.0, -13571.44279139552, -22812.726832953314, -23413.988758801075, -23359.450502330128, -392814.20622041303, -462795.2829355339, -286704.663837512, -346826.29666641913, -0.17, 0.972, 0.264, 192.0, 250.0, 176.0, 30.0, 96.0, 8.0, 64.0, 0.0, 0.0, 0.0, 1.7475192355710344E9, 0.0, 2025-05-17 15:00:35.571
211.0, -13689.907037008648, -22807.36241428404, -23408.803154087444, -23353.013199926998, -392808.30535987683, -462788.04097033036, -286699.4782327984, -346821.0216547277, -0.17, 0.972, 0.264, 192.0, 0.0, 0.0, 0.0, 0.0, 0.0, 0.0, 0.0, 0.0, 0.0, 1.7475192355711107E9, 0.0, 2025-05-17 15:00:35.571
212.0, -14159.740705459202, -22807.36241428404, -23410.323072710406, -23351.225060370572, -392809.19942965504, -462785.8952028627, -286700.8193374657, -346823.4356431289, -0.17, 0.972, 0.264, 192.0, 0.0, 0.0, 0.0, 0.0, 0.0, 0.0, 0.0, 0.0, 0.0, 1.747519235571159E9, 0.0, 2025-05-17 15:00:35.571
213.0, -14119.418158461829, -22798.868751391026, -23402.097630750854, -23343.357246322306, -392801.59983654023, -462777.84857485874, -286693.5773722622, -346815.83605001407, -0.17, 0.972, 0.264, 192.0, 0.0, 0.0, 0.0, 0.0, 0.0, 0.0, 0.0, 0.0, 0.0, 1.7475192355712073E9, 0.0, 2025-05-17 15:00:35.571
214.0, -13665.945966952559, -22798.868751391026, -23399.951863283142, -23344.161909122697, -392799.18584813905, -462778.5638306813, -286691.6104187501, -346813.9585034798, -0.17, 0.972, 0.264, 192.0, 0.0, 0.0, 0.0, 0.0, 0.0, 0.0, 0.0, 0.0, 0.0, 1.747519235571255E9, 0.0, 2025-05-17 15:00:35.571
215.0, -13703.049862748368, -22798.51112347974, -23399.05779350493, -23342.82080445538, -392797.48711556045, -462776.14984228014, -286689.73287221586, -346813.06443370157, -0.17, 0.972, 0.264, 192.0, 0.0, 0.0, 0.0, 0.0, 0.0, 0.0, 0.0, 0.0, 0.0, 1.7475192355713027E9, 0.0, 2025-05-17 15:00:35.571
216.0, -14168.23436835222, -22790.732716409293, -23392.620491101803, -23333.969513651075, -392791.4074410686, -462766.40448169765, -286684.72608145786, -346808.23645689926, -0.17, 0.972, 0.264, 192.0, 0.0, 0.0, 0.0, 0.0, 0.0, 0.0, 0.0, 0.0, 0.0, 1.7475192355713553E9, 0.0, 2025-05-17 15:00:35.571
217.0, -14282.943520896855, -22788.85516987505, -23391.547607367946, -23332.002560139008, -392790.4239643126, -462764.9739700525, -286684.4578605244, -346808.4152708549, -0.17, 0.972, 0.264, 192.0, 0.0, 0.0, 0.0, 0.0, 0.0, 0.0, 0.0, 0.0, 0.0, 1.7475192355714025E9, 0.0, 2025-05-17 15:00:35.571
218.0, -13821.514108361496, -22798.421716501918, -23399.326014438393, -23342.463176544094, -392796.59304578224, -462775.70280739106, -286690.9845699054, -346816.0148639697, -0.17, 0.972, 0.264, 192.0, 0.0, 0.0, 0.0, 0.0, 0.0, 0.0, 0.0, 0.0, 0.0, 1.7475192355714517E9, 0.0, 2025-05-17 15:00:35.571
219.0, -13766.618223979262, -22804.2331700603, -23405.04806101895, -23348.274630102474, -392800.3481388507, -462780.44137721555, -286695.2761048408, -346821.37928263895, -0.17, 0.972, 0.264, 192.0, 0.0, 0.0, 0.0, 0.0, 0.0, 0.0, 0.0, 0.0, 0.0, 1.747519235571502E9, 0.0, 2025-05-17 15:00:35.571
220.0, -14199.437403611828, -22797.527646723705, -23399.68364234968, -23339.870374187278, -392794.8049062258, -462771.32186547783, -286690.53753501625, -346817.355968637, -0.19, 0.964, 0.256, 192.0, 250.0, 16.0, 30.0, 32.0, 8.0, 0.0, 0.0, 0.0, 0.0, 1.74751923557155E9, 0.0, 2025-05-17 15:00:35.571
221.0, -14462.472732361883, -22791.626786187506, -23393.96159576912, -23333.075443872865, -392790.5133712904, -462764.8845630747, -286686.60362799215, -346813.77968952415, -0.19, 0.964, 0.256, 192.0, 0.0, 0.0, 0.0, 0.0, 0.0, 0.0, 0.0, 0.0, 0.0, 1.7475192355716236E9, 0.0, 2025-05-17 15:00:35.571
222.0, -14031.44169228574, -22800.478076991807, -23401.561188883923, -23343.357246322306, -392797.218894627, -462775.7922143689, -286693.4879652844, -346821.8263175281, -0.19, 0.964, 0.256, 192.0, 0.0, 0.0, 0.0, 0.0, 0.0, 0.0, 0.0, 0.0, 0.0, 1.7475192355716765E9, 0.0, 2025-05-17 15:00:35.571
223.0, -13882.84729514686, -22796.99120485678, -23397.44846790415, -23340.228002098564, -392792.9273596916, -462771.94771432254, -286689.64346523804, -346817.98181748175, -0.19, 0.964, 0.256, 192.0, 0.0, 0.0, 0.0, 0.0, 0.0, 0.0, 0.0, 0.0, 0.0, 1.747519235571724E9, 0.0, 2025-05-17 15:00:35.571
224.0, -14263.184578798364, -22798.68993743538, -23400.130677238783, -23340.317409076382, -392795.1625341371, -462771.7689003669, -286692.50448852836, -346822.27335241716, -0.19, 0.964, 0.256, 192.0, 0.0, 0.0, 0.0, 0.0, 0.0, 0.0, 0.0, 0.0, 0.0, 1.7475192355717714E9, 0.0, 2025-05-17 15:00:35.571
225.0, -14644.594746183724, -22791.358565254042, -23394.051002746943, -23332.360188050294, -392790.5133712904, -462764.0799002743, -286688.30236057076, -346818.6970733043, -0.19, 0.964, 0.256, 192.0, 0.0, 0.0, 0.0, 0.0, 0.0, 0.0, 0.0, 0.0, 0.0, 1.7475192355718188E9, 0.0, 2025-05-17 15:00:35.571
226.0, -14282.585892985571, -22787.692879163373, -23389.6700608337, -23329.946199649123, -392785.8642084437, -462762.4705746735, -286684.2790465688, -346814.58435232454, -0.19, 0.964, 0.256, 192.0, 0.0, 0.0, 0.0, 0.0, 0.0, 0.0, 0.0, 0.0, 0.0, 1.747519235571894E9, 0.0, 2025-05-17 15:00:35.571
227.0, -14038.951878422724, -22788.050507074655, -23389.49124687806, -23331.108490360795, -392785.77480146586, -462763.90108631866, -286684.01082563534, -346814.7631662802, -0.19, 0.964, 0.256, 192.0, 0.0, 0.0, 0.0, 0.0, 0.0, 0.0, 0.0, 0.0, 0.0, 1.7475192355719457E9, 0.0, 2025-05-17 15:00:35.571
228.0, -14347.405951905961, -22790.196274542366, -23392.53108412398, -23332.002560139008, -392788.54641777836, -462764.61634214123, -286687.40829079255, -346819.14410819346, -0.19, 0.964, 0.256, 192.0, 0.0, 0.0, 0.0, 0.0, 0.0, 0.0, 0.0, 0.0, 0.0, 1.7475192355719943E9, 0.0, 2025-05-17 15:00:35.571
229.0, -14813.752748221488, -22790.553902453652, -23393.96159576912, -23331.019083382977, -392790.78159222385, -462763.9904932965, -286690.44812803844, -346823.5250501067, -0.19, 0.964, 0.256, 192.0, 0.0, 0.0, 0.0, 0.0, 0.0, 0.0, 0.0, 0.0, 0.0, 1.747519235572042E9, 0.0, 2025-05-17 15:00:35.572
230.0, -14556.707686985457, -22788.139914052477, -23391.01116550102, -23329.320350804373, -392788.6358247562, -462763.3646444517, -286687.8553256816, -346821.64750357246, -0.184, 0.97, 0.256, 192.0, 250.0, 64.0, 30.0, 80.0, 8.0, 0.0, 0.0, 0.0, 0.0, 1.747519235572091E9, 0.0, 2025-05-17 15:00:35.572
231.0, -14217.139985220432, -22789.21279778633, -23391.279386434482, -23331.197897338618, -392788.36760382267, -462766.1362607642, -286688.12354661507, -346822.4521663728, -0.184, 0.97, 0.256, 192.0, 0.0, 0.0, 0.0, 0.0, 0.0, 0.0, 0.0, 0.0, 0.0, 1.747519235572144E9, 0.0, 2025-05-17 15:00:35.572
232.0, -14436.723522749367, -22790.017460586725, -23392.35227016834, -23331.019083382977, -392789.2616736009, -462766.0468537864, -286690.2693140828, -346825.3131896631, -0.184, 0.97, 0.256, 192.0, 0.0, 0.0, 0.0, 0.0, 0.0, 0.0, 0.0, 0.0, 0.0, 1.7475192355721917E9, 0.0, 2025-05-17 15:00:35.572
233.0, -14938.743703215565, -22785.725925651306, -23389.6700608337, -23325.297036802418, -392788.27819684485, -462760.8612490727, -286689.64346523804, -346825.4025966409, -0.184, 0.97, 0.256, 192.0, 0.0, 0.0, 0.0, 0.0, 0.0, 0.0, 0.0, 0.0, 0.0, 1.7475192355722399E9, 0.0, 2025-05-17 15:00:35.572
234.0, -14812.769271465455, -22780.629727915493, -23384.30564216443, -23320.290246044427, -392784.16547586507, -462757.732004849, -286686.24600008084, -346821.9157245059, -0.184, 0.97, 0.256, 192.0, 0.0, 0.0, 0.0, 0.0, 0.0, 0.0, 0.0, 0.0, 0.0, 1.7475192355722885E9, 0.0, 2025-05-17 15:00:35.572
235.0, -14401.497173487804, -22785.815332629125, -23388.507770122025, -23327.263990314485, -392788.0099759114, -462765.0633770303, -286690.2693140828, -346826.74370130827, -0.184, 0.97, 0.256, 192.0, 0.0, 0.0, 0.0, 0.0, 0.0, 0.0, 0.0, 0.0, 0.0, 1.747519235572336E9, 0.0, 2025-05-17 15:00:35.572
236.0, -14529.975000616909, -22796.45476298985, -23399.415421416215, -23337.635199741748, -392798.4705923165, -462775.7922143689, -286700.9981514214, -346839.7077130923, -0.184, 0.97, 0.256, 192.0, 0.0, 0.0, 0.0, 0.0, 0.0, 0.0, 0.0, 0.0, 0.0, 1.7475192355724046E9, 0.0, 2025-05-17 15:00:35.572
237.0, -15045.853262645396, -22783.84837911706, -23388.06073523292, -23322.883048401243, -392789.5298945344, -462761.9341328066, -286692.32567457267, -346831.39286415494, -0.184, 0.97, 0.256, 192.0, 0.0, 0.0, 0.0, 0.0, 0.0, 0.0, 0.0, 0.0, 0.0, 1.7475192355724523E9, 0.0, 2025-05-17 15:00:35.572
238.0, -15071.691879235732, -22774.371239468008, -23378.58359558387, -23313.316501774374, -392782.198522353, -462754.1557257361, -286685.79896519176, -346824.866154774, -0.184, 0.97, 0.256, 192.0, 0.0, 0.0, 0.0, 0.0, 0.0, 0.0, 0.0, 0.0, 0.0, 1.7475192355725021E9, 0.0, 2025-05-17 15:00:35.572
239.0, -14618.577315637747, -22782.50727444974, -23385.91496776521, -23322.972455379066, -392789.08285964525, -462765.242190986, -286693.04093039525, -346833.09159673355, -0.184, 0.97, 0.256, 192.0, 0.0, 0.0, 0.0, 0.0, 0.0, 0.0, 0.0, 0.0, 0.0, 1.74751923557255E9, 0.0, 2025-05-17 15:00:35.572
240.0, -14651.210862542495, -22773.03013480069, -23376.706049049622, -23313.674129685656, -392781.3938595526, -462756.30149320385, -286685.3519303026, -346825.49200361874, -0.178, 0.97, 0.25, 192.0, 250.0, 112.0, 30.0, 80.0, 7.0, 208.0, 0.0, 0.0, 0.0, 1.7475192355725973E9, 0.0, 2025-05-17 15:00:35.572
241.0, -15142.055170781037, -22770.347925466052, -23375.186130426664, -23309.47200172806, -392781.48326653044, -462753.0828420023, -286686.5142210143, -346827.28014317516, -0.178, 0.97, 0.25, 192.0, 0.0, 0.0, 0.0, 0.0, 0.0, 0.0, 0.0, 0.0, 0.0, 1.7475192355726671E9, 0.0, 2025-05-17 15:00:35.572
242.0, -15316.666998465897, -22771.42080919991, -23376.706049049622, -23310.366071506272, -392784.6125107542, -462755.58623738127, -286690.3587210606, -346832.5551548666, -0.178, 0.97, 0.25, 192.0, 0.0, 0.0, 0.0, 0.0, 0.0, 0.0, 0.0, 0.0, 0.0, 1.7475192355727153E9, 0.0, 2025-05-17 15:00:35.572
243.0, -14848.710876549589, -22773.387762711976, -23377.33189789437, -23313.8529436413, -392786.04302239936, -462760.6824351171, -286692.0574536392, -346835.0585502456, -0.178, 0.97, 0.25, 192.0, 0.0, 0.0, 0.0, 0.0, 0.0, 0.0, 0.0, 0.0, 0.0, 1.747519235572769E9, 0.0, 2025-05-17 15:00:35.572
244.0, -14767.439933710091, -22766.861053331024, -23370.179339668673, -23307.147420304707, -392780.4103827966, -462754.9603885365, -286686.7824419478, -346829.69413157634, -0.178, 0.97, 0.25, 192.0, 0.0, 0.0, 0.0, 0.0, 0.0, 0.0, 0.0, 0.0, 0.0, 1.747519235572817E9, 0.0, 2025-05-17 15:00:35.572
245.0, -15203.29895058858, -22765.60935564153, -23369.73230477957, -23304.55461794789, -392782.198522353, -462753.70869084704, -286688.83880243765, -346833.18100371136, -0.178, 0.97, 0.25, 192.0, 0.0, 0.0, 0.0, 0.0, 0.0, 0.0, 0.0, 0.0, 0.0, 1.7475192355728803E9, 0.0, 2025-05-17 15:00:35.572
246.0, -15506.567419358185, -22757.920355548904, -23362.758560509512, -23295.613920165768, -392777.63876648416, -462746.734946577, -286684.99430239137, -346829.78353855415, -0.178, 0.97, 0.25, 192.0, 0.0, 0.0, 0.0, 0.0, 0.0, 0.0, 0.0, 0.0, 0.0, 1.7475192355729313E9, 0.0, 2025-05-17 15:00:35.572
247.0, -15060.337193052435, -22764.447064929853, -23368.927641979175, -23304.37580399225, -392783.8078479538, -462757.2849699599, -286691.43160479446, -346837.4725386468, -0.178, 0.97, 0.25, 192.0, 0.0, 0.0, 0.0, 0.0, 0.0, 0.0, 0.0, 0.0, 0.0, 1.7475192355729823E9, 0.0, 2025-05-17 15:00:35.572
248.0, -14862.6583650897, -22770.16911151041, -23374.38146762627, -23310.72369941756, -392789.5298945344, -462765.4210049416, -286697.5112792863, -346844.89331780595, -0.178, 0.97, 0.25, 192.0, 0.0, 0.0, 0.0, 0.0, 0.0, 0.0, 0.0, 0.0, 0.0, 1.7475192355730329E9, 0.0, 2025-05-17 15:00:35.573
249.0, -15225.740102021708, -22763.374181196, -23368.391200112248, -23302.677071413647, -392785.5959875102, -462758.5366676494, -286694.65025599604, -346841.9428875378, -0.178, 0.97, 0.25, 192.0, 0.0, 0.0, 0.0, 0.0, 0.0, 0.0, 0.0, 0.0, 0.0, 1.7475192355730803E9, 0.0, 2025-05-17 15:00:35.573
250.0, -15639.157967467067, -22755.774588081193, -23361.506862820013, -23293.6469666537, -392781.75148746395, -462751.741737335, -286691.43160479446, -346839.6183061145, -0.166, 0.972, 0.256, 192.0, 250.0, 208.0, 30.0, 96.0, 8.0, 0.0, 0.0, 0.0, 0.0, 1.7475192355731275E9, 0.0, 2025-05-17 15:00:35.573
251.0, -15265.794428085617, -22753.181785724377, -23358.01999068499, -23292.305861986384, -392780.58919675223, -462753.1722489801, -286689.9116861715, -346838.8136433141, -0.166, 0.972, 0.256, 192.0, 0.0, 0.0, 0.0, 0.0, 0.0, 0.0, 0.0, 0.0, 0.0, 1.7475192355732045E9, 0.0, 2025-05-17 15:00:35.573
252.0, -14962.704773271655, -22750.857204301024, -23355.427188328173, -23291.143571274708, -392778.89046417363, -462753.4404699136, -286688.74939545983, -346837.9195735359, -0.166, 0.972, 0.256, 192.0, 0.0, 0.0, 0.0, 0.0, 0.0, 0.0, 0.0, 0.0, 0.0, 1.747519235573252E9, 0.0, 2025-05-17 15:00:35.573
253.0, -15251.310497678578, -22747.996181010745, -23353.28142086046, -23287.299071228394, -392778.26461532887, -462750.9370745346, -286688.5705815042, -346839.08186424756, -0.166, 0.972, 0.256, 192.0, 0.0, 0.0, 0.0, 0.0, 0.0, 0.0, 0.0, 0.0, 0.0, 1.7475192355732996E9, 0.0, 2025-05-17 15:00:35.573
254.0, -15746.178119919077, -22746.386855409964, -23352.744978993534, -23284.16982700465, -392780.4103827966, -462750.1324117342, -286691.163383861, -346843.28399220516, -0.166, 0.972, 0.256, 192.0, 0.0, 0.0, 0.0, 0.0, 0.0, 0.0, 0.0, 0.0, 0.0, 1.7475192355733504E9, 0.0, 2025-05-17 15:00:35.573
255.0, -15492.083488951146, -22743.078797230577, -23349.52632779197, -23282.202873492584, -392779.33749906276, -462750.7582605789, -286690.2693140828, -346843.10517824953, -0.166, 0.972, 0.256, 192.0, 0.0, 0.0, 0.0, 0.0, 0.0, 0.0, 0.0, 0.0, 0.0, 1.7475192355734E9, 0.0, 2025-05-17 15:00:35.573
0.0, -15095.831763247463, -22745.939820520856, -23351.225060370572, -23286.494408428003, -392782.198522353, -462757.2849699599, -286693.39855830657, -346847.03908527363, -0.166, 0.972, 0.256, 192.0, 0.0, 0.0, 0.0, 0.0, 0.0, 0.0, 0.0, 0.0, 0.0, 1.747519235573518E9, 0.0, 2025-05-17 15:00:35.573
1.0, -15297.623312189975, -22740.485994873765, -23346.575897523868, -23280.772361847445, -392779.24809208495, -462752.8146210688, -286691.34219781664, -346845.340352695, -0.166, 0.972, 0.256, 192.0, 0.0, 0.0, 0.0, 0.0, 0.0, 0.0, 0.0, 0.0, 0.0, 1.747519235573568E9, 0.0, 2025-05-17 15:00:35.573
0.0, 0.0, 0.0, 0.0, 0.0, 0.0, 0.0, 0.0, 0.0, -0.22, 0.93, 0.178, 192.0, 249.0, 32.0, 29.0, 16.0, 5.0, 144.0, 0.0, 0.0, 0.0, 1.747519235616438E9, 0.0, 2025-05-17 15:00:35.616
1.0, -384114.63905747404, -606124.6819644788, -712207.9386959004, -712174.9475210843, -490798.8000868321, -712125.7736832827, -578541.9140508072, -712451.8409313967, -0.22, 0.93, 0.178, 192.0, 0.0, 0.0, 0.0, 0.0, 0.0, 0.0, 0.0, 0.0, 0.0, 1.7475192360956209E9, 0.0, 2025-05-17 15:00:36.095
2.0, -384273.3364431067, -606489.7306549229, -712196.8522306505, -712163.592834901, -490979.8492169201, -712114.6872180328, -578792.9688445292, -712440.8438731247, -0.22, 0.93, 0.178, 192.0, 0.0, 0.0, 0.0, 0.0, 0.0, 0.0, 0.0, 0.0, 0.0, 1.7475192360956988E9, 0.0, 2025-05-17 15:00:36.095
3.0, -384454.83260808385, -606958.0444047505, -712187.2856840236, -712154.2051022297, -491186.0217077758, -712105.2994853616, -579068.6105571522, -712431.5455474312, -0.22, 0.93, 0.178, 192.0, 0.0, 0.0, 0.0, 0.0, 0.0, 0.0, 0.0, 0.0, 0.0, 1.747519236095752E9, 0.0, 2025-05-17 15:00:36.095
4.0, -384468.5118756905, -606761.7960884329, -712128.098264706, -712095.1964968678, -491218.3870337471, -712046.7379148887, -579171.9650235135, -712372.3581281136, -0.22, 0.93, 0.178, 192.0, 0.0, 0.0, 0.0, 0.0, 0.0, 0.0, 0.0, 0.0, 0.0, 1.747519236095804E9, 0.0, 2025-05-17 15:00:36.095
5.0, -384445.62368936825, -606406.4927585713, -712053.4434382253, -712020.8992982983, -491210.60862667667, -711973.1559721418, -579235.5333847444, -712297.8821155885, -0.22, 0.93, 0.178, 192.0, 0.0, 0.0, 0.0, 0.0, 0.0, 0.0, 0.0, 0.0, 0.0, 1.7475192360958562E9, 0.0, 2025-05-17 15:00:36.095
6.0, -384569.7205745841, -606624.4669704995, -712034.1315310159, -712001.587391089, -491352.49750047893, -711953.7546579546, -579447.3385152029, -712278.6596153569, -0.22, 0.93, 0.178, 192.0, 0.0, 0.0, 0.0, 0.0, 0.0, 0.0, 0.0, 0.0, 0.0, 1.7475192360959084E9, 0.0, 2025-05-17 15:00:36.095
7.0, -384777.59179801843, -607192.4695005977, -712044.4133334653, -712011.7797865606, -491585.5814916589, -711964.036460404, -579750.338763039, -712289.0308247842, -0.22, 0.93, 0.178, 192.0, 0.0, 0.0, 0.0, 0.0, 0.0, 0.0, 0.0, 0.0, 0.0, 1.747519236095956E9, 0.0, 2025-05-17 15:00:36.095
8.0, -384830.52072888863, -607152.9516164007, -711999.3522166434, -711967.07629765, -491660.23631813965, -711919.9588203381, -579894.7310322203, -712244.595556807, -0.256, 0.918, 0.128, 192.0, 248.0, 0.0, 28.0, 176.0, 4.0, 0.0, 0.0, 0.0, 0.0, 1.7475192360960455E9, 0.0, 2025-05-17 15:00:36.096
9.0, -384793.86386798194, -606754.3753092737, -711921.7469598945, -711889.5604478789, -491641.550259775, -711843.6052612788, -579945.871823534, -712166.9903000582, -0.256, 0.918, 0.128, 192.0, 0.0, 0.0, 0.0, 0.0, 0.0, 0.0, 0.0, 0.0, 0.0, 1.74751923609608E9, 0.0, 2025-05-17 15:00:36.096
10.0, -384904.6391135024, -606930.0600206924, -711894.03079677, -711861.6654707987, -491770.4751217932, -711815.978505132, -580146.1434538536, -712138.9165090224, -0.256, 0.918, 0.128, 192.0, 0.0, 0.0, 0.0, 0.0, 0.0, 0.0, 0.0, 0.0, 0.0, 1.7475192360961113E9, 0.0, 2025-05-17 15:00:36.096
11.0, -385161.5053607828, -607683.0455879028, -711913.4321109572, -711881.066784986, -492051.3024391297, -711835.1115983858, -580495.7247371345, -712158.4966371652, -0.256, 0.918, 0.128, 192.0, 0.0, 0.0, 0.0, 0.0, 0.0, 0.0, 0.0, 0.0, 0.0, 1.7475192360961428E9, 0.0, 2025-05-17 15:00:36.096
12.0, -385270.0454318578, -607855.1540202086, -711888.4875641451, -711856.2116451516, -492182.55188257125, -711810.524679485, -580694.6552627868, -712133.4626833752, -0.256, 0.918, 0.128, 192.0, 0.0, 0.0, 0.0, 0.0, 0.0, 0.0, 0.0, 0.0, 0.0, 1.747519236096174E9, 0.0, 2025-05-17 15:00:36.096
13.0, -385259.4954084749, -607561.1838771325, -711825.4556447811, -711793.537353699, -492191.4031733755, -711748.7444578105, -580774.3168800256, -712070.3413570335, -0.256, 0.918, 0.128, 192.0, 0.0, 0.0, 0.0, 0.0, 0.0, 0.0, 0.0, 0.0, 0.0, 1.7475192360962272E9, 0.0, 2025-05-17 15:00:36.096
14.0, -385328.6070023307, -607569.3199121142, -711786.0271675619, -711754.2876904354, -492280.8101511968, -711710.2100503696, -580933.5507075251, -712031.0916937699, -0.256, 0.918, 0.128, 192.0, 0.0, 0.0, 0.0, 0.0, 0.0, 0.0, 0.0, 0.0, 0.0, 1.7475192360962584E9, 0.0, 2025-05-17 15:00:36.096
15.0, -385575.012633206, -608280.9100485933, -711804.8026329044, -711772.6161208887, -492552.1603288842, -711729.7007715346, -581274.5489209353, -712049.7777521346, -0.256, 0.918, 0.128, 192.0, 0.0, 0.0, 0.0, 0.0, 0.0, 0.0, 0.0, 0.0, 0.0, 1.7475192360962892E9, 0.0, 2025-05-17 15:00:36.096
16.0, -385694.1027276639, -608491.1952604288, -711783.1661442717, -711751.2478531895, -492693.42335384176, -711708.511317791, -581485.4599816155, -712027.4260076793, -0.256, 0.918, 0.128, 192.0, 0.0, 0.0, 0.0, 0.0, 0.0, 0.0, 0.0, 0.0, 0.0, 1.7475192360963197E9, 0.0, 2025-05-17 15:00:36.096
17.0, -385696.6061230429, -608247.9188737773, -711719.6871900186, -711687.9477128921, -492717.47383087565, -711646.3734682052, -581577.8173897049, -711963.8576464484, -0.256, 0.918, 0.128, 192.0, 0.0, 0.0, 0.0, 0.0, 0.0, 0.0, 0.0, 0.0, 0.0, 1.7475192360963504E9, 0.0, 2025-05-17 15:00:36.096
18.0, -385738.8956235523, -608153.9521400871, -711662.6455381686, -711631.6213168647, -492780.4163432618, -711591.4775838229, -581707.9045424348, -711907.4418434432, -0.268, 0.924, 0.108, 192.0, 247.0, 160.0, 28.0, 224.0, 3.0, 96.0, 0.0, 0.0, 0.0, 1.747519236096381E9, 0.0, 2025-05-17 15:00:36.096
19.0, -386004.43434768135, -608936.263196023, -711685.444317513, -711654.4200962092, -493069.2902886022, -711613.8293282783, -582064.9960118528, -711930.4194367433, -0.268, 0.924, 0.108, 192.0, 0.0, 0.0, 0.0, 0.0, 0.0, 0.0, 0.0, 0.0, 0.0, 1.747519236096414E9, 0.0, 2025-05-17 15:00:36.096
20.0, -386239.66410632903, -609606.7261227043, -711707.9748759241, -711676.5930267088, -493326.6929777495, -711636.5387006449, -582392.9408065011, -711952.7711811985, -0.268, 0.924, 0.108, 192.0, 0.0, 0.0, 0.0, 0.0, 0.0, 0.0, 0.0, 0.0, 0.0, 1.747519236096445E9, 0.0, 2025-05-17 15:00:36.096
21.0, -386311.45790951943, -609640.2537393873, -711666.1324103037, -711635.465816911, -493418.6927579275, -711596.6631885367, -582557.1814247586, -711911.1075295339, -0.268, 0.924, 0.108, 192.0, 0.0, 0.0, 0.0, 0.0, 0.0, 0.0, 0.0, 0.0, 0.0, 1.7475192360964763E9, 0.0, 2025-05-17 15:00:36.096
22.0, -386367.06904972426, -609607.6201924825, -711619.5513748588, -711589.2424093775, -493496.0297937429, -711551.7808856703, -582705.507600964, -711863.6324243108, -0.268, 0.924, 0.108, 192.0, 0.0, 0.0, 0.0, 0.0, 0.0, 0.0, 0.0, 0.0, 0.0, 1.7475192360965073E9, 0.0, 2025-05-17 15:00:36.096
23.0, -386637.2569367, -610405.4880625592, -711653.0789915418, -711622.2335841935, -493789.01646006305, -711584.8614674642, -583068.3211169626, -711897.6070758828, -0.268, 0.924, 0.108, 192.0, 0.0, 0.0, 0.0, 0.0, 0.0, 0.0, 0.0, 0.0, 0.0, 1.7475192360965524E9, 0.0, 2025-05-17 15:00:36.096
24.0, -386913.2562772341, -611226.5123398915, -711679.0964220878, -711648.4298286951, -494088.4404287864, -711610.4318631211, -583437.7507493199, -711923.8927273623, -0.268, 0.924, 0.108, 192.0, 0.0, 0.0, 0.0, 0.0, 0.0, 0.0, 0.0, 0.0, 0.0, 1.7475192360965831E9, 0.0, 2025-05-17 15:00:36.096
25.0, -387063.9070348629, -611556.334681074, -711663.450200969, -711633.0518285098, -494259.65479131404, -711596.2161536475, -583679.7754382819, -711908.1570992657, -0.268, 0.924, 0.108, 192.0, 0.0, 0.0, 0.0, 0.0, 0.0, 0.0, 0.0, 0.0, 0.0, 1.7475192360966136E9, 0.0, 2025-05-17 15:00:36.096
26.0, -387188.6297689235, -611790.1339280766, -711643.3336309593, -711614.008142234, -494402.88476978365, -711578.4241650611, -583893.3687082969, -711888.1299362337, -0.268, 0.924, 0.108, 192.0, 0.0, 0.0, 0.0, 0.0, 0.0, 0.0, 0.0, 0.0, 0.0, 1.7475192360966449E9, 0.0, 2025-05-17 15:00:36.096
27.0, -387485.28212133434, -612693.6808459379, -711680.8845616442, -711650.7544101184, -494720.3689480268, -711614.4551771231, -584282.2890618192, -711925.7702738965, -0.268, 0.924, 0.108, 192.0, 0.0, 0.0, 0.0, 0.0, 0.0, 0.0, 0.0, 0.0, 0.0, 1.7475192360966759E9, 0.0, 2025-05-17 15:00:36.096
28.0, -387795.6137413518, -613662.4948576087, -711718.7931202404, -711688.0371198698, -495055.1086729895, -711651.022631052, -584689.9848806841, -711963.7682394705, -0.262, 0.9520000000000001, 0.094, 192.0, 247.0, 208.0, 29.0, 192.0, 2.0, 240.0, 0.0, 0.0, 0.0, 1.7475192360967188E9, 0.0, 2025-05-17 15:00:36.096
29.0, -387894.05082393304, -613795.9794754958, -711691.2557710714, -711661.3044335013, -495175.53987211466, -711625.5416423728, -584881.4052201993, -711936.1414833238, -0.262, 0.9520000000000001, 0.094, 192.0, 0.0, 0.0, 0.0, 0.0, 0.0, 0.0, 0.0, 0.0, 0.0, 1.7475192360967531E9, 0.0, 2025-05-17 15:00:36.096
30.0, -387896.0177774451, -613538.9344142597, -711619.9090027701, -711591.8352117343, -495195.74584910227, -711560.0063276299, -584972.06389571, -711864.526494089, -0.262, 0.9520000000000001, 0.094, 192.0, 0.0, 0.0, 0.0, 0.0, 0.0, 0.0, 0.0, 0.0, 0.0, 1.747519236096784E9, 0.0, 2025-05-17 15:00:36.096
31.0, -388054.80457005557, -613891.0190929198, -711608.1072816977, -711580.3911185731, -495373.84454892215, -711550.439781003, -585219.9894452083, -711852.2777381275, -0.262, 0.9520000000000001, 0.094, 192.0, 0.0, 0.0, 0.0, 0.0, 0.0, 0.0, 0.0, 0.0, 0.0, 1.7475192360968149E9, 0.0, 2025-05-17 15:00:36.096
32.0, -388300.5843520861, -614605.2020317557, -711622.948840016, -711594.7856420024, -495644.1218428757, -711564.5660834988, -585560.4512167515, -711867.4769243571, -0.262, 0.9520000000000001, 0.094, 192.0, 0.0, 0.0, 0.0, 0.0, 0.0, 0.0, 0.0, 0.0, 0.0, 1.7475192360968451E9, 0.0, 2025-05-17 15:00:36.096
33.0, -388331.34035245667, -614482.3568442294, -711550.3503740252, -711528.8032923703, -495697.67662259063, -711506.0045130259, -585683.6540321892, -711793.000911832, -0.262, 0.9520000000000001, 0.094, 192.0, 0.0, 0.0, 0.0, 0.0, 0.0, 0.0, 0.0, 0.0, 0.0, 1.747519236096876E9, 0.0, 2025-05-17 15:00:36.096
34.0, -388214.127804533, -613773.8065449961, -711218.2034514194, -711316.5511270227, -495600.6700516546, -711403.6335234205, -585655.9378690646, -711408.7297211564, -0.262, 0.9520000000000001, 0.094, 192.0, 0.0, 0.0, 0.0, 0.0, 0.0, 0.0, 0.0, 0.0, 0.0, 1.747519236096907E9, 0.0, 2025-05-17 15:00:36.096
35.0, -388149.128931657, -613265.7066900381, -710428.5610233023, -710767.6816901781, -495554.89367901016, -711325.5812317827, -585680.8824158767, -710548.6345945161, -0.262, 0.9520000000000001, 0.094, 192.0, 0.0, 0.0, 0.0, 0.0, 0.0, 0.0, 0.0, 0.0, 0.0, 1.7475192360969377E9, 0.0, 2025-05-17 15:00:36.096
36.0, -388188.73622283177, -613172.8128400819, -709736.014573099, -710151.5782060121, -495619.17729606363, -711276.7650218923, -585815.8869523868, -709853.1377140448, -0.262, 0.9520000000000001, 0.094, 192.0, 0.0, 0.0, 0.0, 0.0, 0.0, 0.0, 0.0, 0.0, 0.0, 1.747519236096969E9, 0.0, 2025-05-17 15:00:36.096
37.0, -387952.9700223172, -612003.9060120471, -707850.4214108493, -708351.1004866482, -495406.925130716, -711117.7100083482, -585671.9417180946, -707953.9546911663, -0.262, 0.9520000000000001, 0.094, 192.0, 0.0, 0.0, 0.0, 0.0, 0.0, 0.0, 0.0, 0.0, 0.0, 1.747519236097012E9, 0.0, 2025-05-17 15:00:36.097
38.0, -387120.6804657794, -608497.5431558542, -703377.4797174311, -703932.8758636565, -494594.8415511658, -708840.6930971972, -584927.7180347107, -703477.9731605022, -0.264, 0.974, 0.096, 192.0, 247.0, 192.0, 30.0, 112.0, 3.0, 0.0, 0.0, 0.0, 0.0, 1.7475192360970433E9, 0.0, 2025-05-17 15:00:36.097
39.0, -382732.40718035784, -591079.6333646338, -685034.1182987832, -684644.6615033939, -490220.24753335095, -691383.8018636468, -580616.6029711489, -685544.1851072533, -0.264, 0.974, 0.096, 192.0, 0.0, 0.0, 0.0, 0.0, 0.0, 0.0, 0.0, 0.0, 0.0, 1.747519236097076E9, 0.0, 2025-05-17 15:00:36.097
40.0, -377860.3527379457, -571749.7553527064, -665750.642508345, -663572.5097146642, -485344.3485908924, -672967.6631650523, -575807.4910411228, -666671.2661589702, -0.264, 0.974, 0.096, 192.0, 0.0, 0.0, 0.0, 0.0, 0.0, 0.0, 0.0, 0.0, 0.0, 1.747519236097107E9, 0.0, 2025-05-17 15:00:36.097
41.0, -376392.7371970102, -565745.1827222327, -660396.7738624542, -657910.9022511127, -483862.0703055943, -667466.3624127344, -574401.2980939506, -660991.6878928767, -0.264, 0.974, 0.096, 192.0, 0.0, 0.0, 0.0, 0.0, 0.0, 0.0, 0.0, 0.0, 0.0, 1.7475192360971377E9, 0.0, 2025-05-17 15:00:36.097
42.0, -375992.90919219365, -563912.5184908531, -659308.2439074807, -656619.8654913743, -483445.0761610361, -665989.180325172, -574063.5185317419, -659535.5164451023, -0.264, 0.974, 0.096, 192.0, 0.0, 0.0, 0.0, 0.0, 0.0, 0.0, 0.0, 0.0, 0.0, 1.7475192360971818E9, 0.0, 2025-05-17 15:00:36.097
43.0, -376382.1871736273, -565163.41151755, -661366.6607578589, -658413.9953153129, -483818.3502934397, -667595.555495686, -574516.096653473, -661249.2693959796, -0.264, 0.974, 0.096, 192.0, 0.0, 0.0, 0.0, 0.0, 0.0, 0.0, 0.0, 0.0, 0.0, 1.7475192360972123E9, 0.0, 2025-05-17 15:00:36.097
44.0, -377083.495507657, -567637.3920008412, -664681.1562396474, -661433.0007354022, -484505.7111389293, -670433.0647507984, -575284.9966627356, -664224.1971760031, -0.264, 0.974, 0.096, 192.0, 0.0, 0.0, 0.0, 0.0, 0.0, 0.0, 0.0, 0.0, 0.0, 1.7475192360972435E9, 0.0, 2025-05-17 15:00:36.097
45.0, -377387.4792322492, -568569.4597446275, -666416.5456791575, -662894.5366018459, -484794.2274563584, -671719.0053128011, -575654.9627369598, -665608.1277856979, -0.264, 0.974, 0.096, 192.0, 0.0, 0.0, 0.0, 0.0, 0.0, 0.0, 0.0, 0.0, 0.0, 1.7475192360972743E9, 0.0, 2025-05-17 15:00:36.097
46.0, -377367.1838482838, -568231.590775441, -666845.6991726994, -663082.023034337, -484757.4811884739, -671728.6612664058, -575697.5204584027, -665677.0605655981, -0.264, 0.974, 0.096, 192.0, 0.0, 0.0, 0.0, 0.0, 0.0, 0.0, 0.0, 0.0, 0.0, 1.7475192360973053E9, 0.0, 2025-05-17 15:00:36.097
47.0, -377431.10983742593, -568206.109786762, -667597.4330422203, -663591.7322148958, -484803.7940029853, -672058.125979677, -575822.1537854855, -666076.0839076142, -0.264, 0.974, 0.096, 192.0, 0.0, 0.0, 0.0, 0.0, 0.0, 0.0, 0.0, 0.0, 0.0, 1.7475192360973356E9, 0.0, 2025-05-17 15:00:36.097
48.0, -377167.3592528533, -566914.357771201, -667062.2428729824, -662844.3792872882, -484526.4535577838, -671134.5518987838, -575623.3126668112, -665188.5408387829, -0.262, 0.992, 0.10200000000000001, 192.0, 247.0, 208.0, 31.0, 0.0, 3.0, 48.0, 0.0, 0.0, 0.0, 1.7475192360973718E9, 0.0, 2025-05-17 15:00:36.097
49.0, -374522.4326279679, -556328.3927832119, -657030.0647056181, -652768.2128868357, -481869.45699089253, -660907.0194848799, -573041.5073682675, -654769.6774923417, -0.262, 0.992, 0.10200000000000001, 192.0, 0.0, 0.0, 0.0, 0.0, 0.0, 0.0, 0.0, 0.0, 0.0, 1.7475192360974047E9, 0.0, 2025-05-17 15:00:36.097
50.0, -371115.1327032009, -542740.6779218529, -643919.2466639575, -639671.431740693, -478444.90151940606, -647643.4943251008, -569689.5503627718, -641256.1704225744, -0.262, 0.992, 0.10200000000000001, 192.0, 0.0, 0.0, 0.0, 0.0, 0.0, 0.0, 0.0, 0.0, 0.0, 1.7475192360974352E9, 0.0, 2025-05-17 15:00:36.097
51.0, -368733.7778489325, -533156.339306395, -634903.357613487, -630595.0141662377, -476043.1618741944, -638377.3551437086, -567361.6608812405, -631839.0228556423, -0.262, 0.992, 0.10200000000000001, 192.0, 0.0, 0.0, 0.0, 0.0, 0.0, 0.0, 0.0, 0.0, 0.0, 1.747519236097466E9, 0.0, 2025-05-17 15:00:36.097
52.0, -366877.2419544747, -525626.8412622025, -627996.3109488859, -623583.8977794526, -474169.90687488404, -631180.3616500333, -565562.6136735218, -624545.2016049864, -0.262, 0.992, 0.10200000000000001, 192.0, 0.0, 0.0, 0.0, 0.0, 0.0, 0.0, 0.0, 0.0, 0.0, 1.7475192360975091E9, 0.0, 2025-05-17 15:00:36.097
53.0, -365081.59221191314, -518339.0102790607, -621343.4483222304, -616818.2929537646, -472360.3990507602, -624233.7971012351, -563827.9394898342, -617513.7004272582, -0.262, 0.992, 0.10200000000000001, 192.0, 0.0, 0.0, 0.0, 0.0, 0.0, 0.0, 0.0, 0.0, 0.0, 1.747519236097541E9, 0.0, 2025-05-17 15:00:36.097
54.0, -363303.2874230489, -511111.17137803696, -614743.5146264451, -610108.3886752592, -470565.10693610995, -617339.0885995732, -562108.1068644652, -610533.7870757326, -0.262, 0.992, 0.10200000000000001, 192.0, 0.0, 0.0, 0.0, 0.0, 0.0, 0.0, 0.0, 0.0, 0.0, 1.7475192360975723E9, 0.0, 2025-05-17 15:00:36.097
55.0, -361871.34526626416, -505247.6829585651, -609529.5679008446, -604750.9437502556, -469115.90923260566, -611796.4818235019, -560734.1004293085, -604937.804333902, -0.262, 0.992, 0.10200000000000001, 192.0, 0.0, 0.0, 0.0, 0.0, 0.0, 0.0, 0.0, 0.0, 0.0, 1.7475192360976045E9, 0.0, 2025-05-17 15:00:36.097
56.0, -360720.85627566057, -500477.9100987804, -605436.1588282775, -600504.3805246807, -467950.6680906616, -607352.865618809, -559642.8882650004, -600471.2999428868, -0.262, 0.992, 0.10200000000000001, 192.0, 0.0, 0.0, 0.0, 0.0, 0.0, 0.0, 0.0, 0.0, 0.0, 1.747519236097637E9, 0.0, 2025-05-17 15:00:36.097
57.0, -359823.6572532245, -496705.4720765915, -602358.4130237595, -597267.3114856853, -467041.13090528623, -603912.3062982925, -558810.7775224183, -597040.8436108641, -0.262, 0.992, 0.10200000000000001, 192.0, 0.0, 0.0, 0.0, 0.0, 0.0, 0.0, 0.0, 0.0, 0.0, 1.7475192360976875E9, 0.0, 2025-05-17 15:00:36.097
58.0, -358848.1377182171, -492633.5206787015, -598963.0936340205, -593712.4900475133, -466048.98167240404, -600158.5543344682, -557897.66405793, -593300.4132867353, -0.266, 0.984, 0.112, 192.0, 247.0, 176.0, 30.0, 192.0, 3.0, 128.0, 0.0, 0.0, 0.0, 1.7475192360977204E9, 0.0, 2025-05-17 15:00:36.097
59.0, -357694.6982973455, -487862.9431561164, -594857.1675845585, -589453.2310310878, -464877.5714489903, -595703.6728505698, -556804.1273121986, -588838.1110236777, -0.266, 0.984, 0.112, 192.0, 0.0, 0.0, 0.0, 0.0, 0.0, 0.0, 0.0, 0.0, 0.0, 1.747519236097767E9, 0.0, 2025-05-17 15:00:36.097
60.0, -356607.59885401715, -483348.3378110335, -591022.1446778948, -585460.1365876361, -463774.28934267635, -591517.0123001352, -555778.9869045004, -584646.6224964408, -0.266, 0.984, 0.112, 192.0, 0.0, 0.0, 0.0, 0.0, 0.0, 0.0, 0.0, 0.0, 0.0, 1.7475192360978172E9, 0.0, 2025-05-17 15:00:36.097
61.0, -355587.91227196605, -479103.11569012597, -587464.5516234102, -581742.5944498294, -462741.54934186337, -587606.9769390795, -554824.5674162587, -580736.8553563184, -0.266, 0.984, 0.112, 192.0, 0.0, 0.0, 0.0, 0.0, 0.0, 0.0, 0.0, 0.0, 0.0, 1.7475192360978673E9, 0.0, 2025-05-17 15:00:36.097
62.0, -354437.7809092738, -474339.24369087745, -583365.5993182182, -577493.4384218977, -461573.8048045403, -583165.6853158099, -553733.9811007954, -576281.4374305531, -0.266, 0.984, 0.112, 192.0, 0.0, 0.0, 0.0, 0.0, 0.0, 0.0, 0.0, 0.0, 0.0, 1.7475192360979085E9, 0.0, 2025-05-17 15:00:36.097
63.0, -353319.7466516193, -469687.57744879456, -579386.6311772623, -573361.4055349119, -460434.67050012003, -578830.9668101033, -552671.3791693902, -571939.9239945322, -0.266, 0.984, 0.112, 192.0, 0.0, 0.0, 0.0, 0.0, 0.0, 0.0, 0.0, 0.0, 0.0, 1.7475192360979397E9, 0.0, 2025-05-17 15:00:36.097
64.0, -352437.47859447944, -465958.50181084895, -576351.8901290763, -570171.0069383391, -459533.448163682, -575423.4880713806, -551846.8680199228, -568560.3402328898, -0.266, 0.984, 0.112, 192.0, 0.0, 0.0, 0.0, 0.0, 0.0, 0.0, 0.0, 0.0, 0.0, 1.7475192360979712E9, 0.0, 2025-05-17 15:00:36.097
65.0, -351954.0550654, -463804.7771221134, -574923.70306536, -568562.7542212909, -459037.2394367742, -573599.0492819607, -551429.6056544312, -566804.5660024364, -0.266, 0.984, 0.112, 192.0, 0.0, 0.0, 0.0, 0.0, 0.0, 0.0, 0.0, 0.0, 0.0, 1.7475192360980022E9, 0.0, 2025-05-17 15:00:36.098
66.0, -351407.957244868, -461415.6438607745, -573247.6798591233, -566702.8208616759, -458477.730569569, -571533.390466379, -550950.7418812206, -564798.1840131503, -0.266, 0.984, 0.112, 192.0, 0.0, 0.0, 0.0, 0.0, 0.0, 0.0, 0.0, 0.0, 0.0, 1.7475192360980337E9, 0.0, 2025-05-17 15:00:36.098
67.0, -350766.46217900066, -458644.3851762277, -571180.5905318965, -564451.8213810708, -457818.0858872039, -569076.1290879404, -550371.2058509834, -562386.2519724669, -0.266, 0.984, 0.112, 192.0, 0.0, 0.0, 0.0, 0.0, 0.0, 0.0, 0.0, 0.0, 0.0, 1.7475192360981228E9, 0.0, 2025-05-17 15:00:36.098
68.0, -350226.98047482735, -456264.2820196488, -569523.3427910021, -562598.9511727036, -457260.6333804886, -567008.2350979132, -549891.5374149726, -560376.9195529127, -0.27, 0.98, 0.114, 192.0, 247.0, 144.0, 30.0, 160.0, 3.0, 144.0, 0.0, 0.0, 0.0, 1.7475192360981607E9, 0.0, 2025-05-17 15:00:36.098
69.0, -350027.5135073082, -455211.51485580386, -569233.395961928, -562087.0068176993, -457044.6261220725, -566290.9229148534, -549755.6388086842, -559743.0240801602, -0.27, 0.98, 0.114, 192.0, 0.0, 0.0, 0.0, 0.0, 0.0, 0.0, 0.0, 0.0, 0.0, 1.7475192360981944E9, 0.0, 2025-05-17 15:00:36.098
70.0, -349746.59678299393, -453854.7639673667, -568617.9183266066, -561258.9193891191, -456748.2419905951, -565260.1498675526, -549540.3468060907, -558787.7999291181, -0.27, 0.98, 0.114, 192.0, 0.0, 0.0, 0.0, 0.0, 0.0, 0.0, 0.0, 0.0, 0.0, 1.747519236098225E9, 0.0, 2025-05-17 15:00:36.098
71.0, -349260.938079469, -451702.2909763206, -567185.4397279549, -559620.7153345008, -456246.9370659515, -563417.5614616348, -549117.4518009963, -556997.5146052259, -0.27, 0.98, 0.114, 192.0, 0.0, 0.0, 0.0, 0.0, 0.0, 0.0, 0.0, 0.0, 0.0, 1.7475192360982563E9, 0.0, 2025-05-17 15:00:36.098
72.0, -348911.62501712143, -450069.09371246025, -566284.127984539, -558505.8997280479, -455879.116759195, -562094.2487829028, -548827.4155649443, -555734.9092644345, -0.27, 0.98, 0.114, 192.0, 0.0, 0.0, 0.0, 0.0, 0.0, 0.0, 0.0, 0.0, 0.0, 1.747519236098323E9, 0.0, 2025-05-17 15:00:36.098
73.0, -349059.1465305265, -450370.8422626069, -567364.2536835973, -559346.9511684121, -456010.36620263656, -562723.4950928086, -549040.2041721587, -556482.7986339091, -0.27, 0.98, 0.114, 192.0, 0.0, 0.0, 0.0, 0.0, 0.0, 0.0, 0.0, 0.0, 0.0, 1.747519236098354E9, 0.0, 2025-05-17 15:00:36.098
74.0, -349351.41794102406, -451252.84209881333, -569027.759912939, -560767.1810111024, -456290.56767112826, -563936.121932998, -549401.4977695344, -557833.1122199431, -0.27, 0.98, 0.114, 192.0, 0.0, 0.0, 0.0, 0.0, 0.0, 0.0, 0.0, 0.0, 0.0, 1.7475192360983846E9, 0.0, 2025-05-17 15:00:36.098
75.0, -349532.9141060012, -451706.3142903226, -570251.2049974448, -561750.568360158, -456458.74219641, -564704.0384655045, -549649.8703539218, -558722.7116492643, -0.27, 0.98, 0.114, 192.0, 0.0, 0.0, 0.0, 0.0, 0.0, 0.0, 0.0, 0.0, 0.0, 1.7475192360984154E9, 0.0, 2025-05-17 15:00:36.098
76.0, -349712.4433174662, -452144.94492351357, -571464.1000585676, -562713.4815112926, -456620.39001231076, -565452.3748698682, -549894.0408103515, -559590.4957759972, -0.27, 0.98, 0.114, 192.0, 0.0, 0.0, 0.0, 0.0, 0.0, 0.0, 0.0, 0.0, 0.0, 1.7475192360984464E9, 0.0, 2025-05-17 15:00:36.098
77.0, -350260.2398705769, -454014.17660882196, -574151.9420328072, -565119.0656565507, -457153.70263501443, -567648.031431202, -550508.5349689168, -561944.8497229635, -0.27, 0.98, 0.114, 192.0, 0.0, 0.0, 0.0, 0.0, 0.0, 0.0, 0.0, 0.0, 0.0, 1.7475192360984771E9, 0.0, 2025-05-17 15:00:36.098
78.0, -351053.9950196737, -456850.7917941561, -577818.1645653445, -568494.179069302, -457934.4043653494, -570814.9159926076, -551370.9546769804, -565297.3431703262, -0.26, 0.988, 0.112, 192.0, 247.0, 224.0, 30.0, 224.0, 3.0, 128.0, 0.0, 0.0, 0.0, 1.747519236098508E9, 0.0, 2025-05-17 15:00:36.098
79.0, -351344.65710457054, -457721.61575813487, -579474.5182364605, -569890.7160628696, -458207.5426825932, -572004.7440534525, -551725.9897859085, -566623.0698374594, -0.26, 0.988, 0.112, 192.0, 0.0, 0.0, 0.0, 0.0, 0.0, 0.0, 0.0, 0.0, 0.0, 1.7475192360985413E9, 0.0, 2025-05-17 15:00:36.098
80.0, -351335.0905579437, -457415.48626607493, -579931.1196721935, -570112.7135887997, -458179.29007760173, -572013.505937279, -551779.3657516678, -566733.755676002, -0.26, 0.988, 0.112, 192.0, 0.0, 0.0, 0.0, 0.0, 0.0, 0.0, 0.0, 0.0, 0.0, 1.747519236098572E9, 0.0, 2025-05-17 15:00:36.098
81.0, -351570.499130547, -458063.8656692345, -581358.3232591538, -571291.9916262617, -458397.80073139677, -572979.2801117039, -552079.7731971471, -567829.6170031568, -0.26, 0.988, 0.112, 192.0, 0.0, 0.0, 0.0, 0.0, 0.0, 0.0, 0.0, 0.0, 0.0, 1.7475192360986025E9, 0.0, 2025-05-17 15:00:36.098
82.0, -352030.2298105037, -459600.77161798143, -583688.5373221085, -573360.8690930449, -458847.42842285975, -574844.1308550991, -552610.1353895826, -569850.3041088944, -0.26, 0.988, 0.112, 192.0, 0.0, 0.0, 0.0, 0.0, 0.0, 0.0, 0.0, 0.0, 0.0, 1.7475192360986464E9, 0.0, 2025-05-17 15:00:36.098
83.0, -352272.96975528833, -460289.2053472049, -585144.2617349937, -574567.5950726981, -459075.4162163039, -575849.959355588, -552919.2153119106, -570993.3723203389, -0.26, 0.988, 0.112, 192.0, 0.0, 0.0, 0.0, 0.0, 0.0, 0.0, 0.0, 0.0, 0.0, 1.7475192360986772E9, 0.0, 2025-05-17 15:00:36.098
84.0, -352417.5408384253, -460581.38735072466, -586202.8403523971, -575375.6553382463, -459199.6919154754, -576460.9666420182, -553125.8348376554, -571724.0061430939, -0.26, 0.988, 0.112, 192.0, 0.0, 0.0, 0.0, 0.0, 0.0, 0.0, 0.0, 0.0, 0.0, 1.7475192360987077E9, 0.0, 2025-05-17 15:00:36.098
85.0, -352733.23687711207, -461540.63481576863, -587949.8526990239, -576859.3641351896, -459498.2218144205, -577742.9732969968, -553505.9039003735, -573142.4478462277, -0.26, 0.988, 0.112, 192.0, 0.0, 0.0, 0.0, 0.0, 0.0, 0.0, 0.0, 0.0, 0.0, 1.7475192360987384E9, 0.0, 2025-05-17 15:00:36.098
86.0, -353318.31613997417, -463567.1333750646, -590791.2064541825, -579428.4736428825, -460072.8404608775, -580098.0424997858, -554162.5087454926, -575668.6420045665, -0.26, 0.988, 0.112, 192.0, 0.0, 0.0, 0.0, 0.0, 0.0, 0.0, 0.0, 0.0, 0.0, 1.7475192360987687E9, 0.0, 2025-05-17 15:00:36.098
87.0, -353719.3958424802, -464866.5743907183, -592888.8729678241, -581265.2505952419, -460460.86674462166, -581723.5507635535, -554631.5377511428, -577441.4929677836, -0.26, 0.988, 0.112, 192.0, 0.0, 0.0, 0.0, 0.0, 0.0, 0.0, 0.0, 0.0, 0.0, 1.747519236098811E9, 0.0, 2025-05-17 15:00:36.098
88.0, -353909.29626337247, -465347.5839313965, -594138.0672619423, -582271.3473166642, -460636.2832351069, -582517.6635405617, -554886.7052658446, -578359.3450020964, -0.252, 0.992, 0.108, 192.0, 248.0, 32.0, 31.0, 0.0, 3.0, 96.0, 0.0, 0.0, 0.0, 1.7475192360988417E9, 0.0, 2025-05-17 15:00:36.098
89.0, -354178.3218596366, -466142.14374329377, -595705.7292110597, -583584.6464138802, -460891.5401567865, -583627.4723562566, -555221.2661768516, -579592.1778192732, -0.252, 0.992, 0.108, 192.0, 0.0, 0.0, 0.0, 0.0, 0.0, 0.0, 0.0, 0.0, 0.0, 1.747519236098874E9, 0.0, 2025-05-17 15:00:36.098
90.0, -354820.4427743486, -468399.3123053685, -598768.9910851707, -586367.6174125216, -461522.4851992709, -586209.2776548002, -555932.8563133307, -582339.7436546974, -0.252, 0.992, 0.108, 192.0, 0.0, 0.0, 0.0, 0.0, 0.0, 0.0, 0.0, 0.0, 0.0, 1.7475192360989048E9, 0.0, 2025-05-17 15:00:36.098
91.0, -355376.64358337445, -470327.19496812765, -601482.8504899562, -588808.6961279745, -462067.24191513564, -588452.5881353127, -556557.7216813233, -584745.2383929775, -0.252, 0.992, 0.108, 192.0, 0.0, 0.0, 0.0, 0.0, 0.0, 0.0, 0.0, 0.0, 0.0, 1.7475192360989356E9, 0.0, 2025-05-17 15:00:36.098
92.0, -355709.0587269138, -471368.0710039224, -603298.6168025276, -590373.5864607795, -462386.51423293527, -589806.0309655704, -556956.3873954281, -586236.7255969913, -0.252, 0.992, 0.108, 192.0, 0.0, 0.0, 0.0, 0.0, 0.0, 0.0, 0.0, 0.0, 0.0, 1.7475192360989661E9, 0.0, 2025-05-17 15:00:36.098
93.0, -356169.95169758226, -472898.0032083992, -605615.0621908978, -592430.5727995125, -462832.0292034184, -591648.4405575324, -557481.2063552388, -588223.5274581346, -0.252, 0.992, 0.108, 192.0, 0.0, 0.0, 0.0, 0.0, 0.0, 0.0, 0.0, 0.0, 0.0, 1.7475192360989969E9, 0.0, 2025-05-17 15:00:36.098
94.0, -357548.0708537187, -478024.59931666846, -611596.836042027, -598088.0675420843, -464198.5254524381, -597095.0242394238, -558929.8676168761, -593914.6392243671, -0.252, 0.992, 0.108, 192.0, 0.0, 0.0, 0.0, 0.0, 0.0, 0.0, 0.0, 0.0, 0.0, 1.7475192360990272E9, 0.0, 2025-05-17 15:00:36.099
95.0, -359290.52344447654, -484588.85962830303, -619042.6491549789, -605172.3188367271, -465929.44454305706, -603975.069996723, -560744.1140108245, -601079.1779850934, -0.252, 0.992, 0.108, 192.0, 0.0, 0.0, 0.0, 0.0, 0.0, 0.0, 0.0, 0.0, 0.0, 1.7475192360990577E9, 0.0, 2025-05-17 15:00:36.099
96.0, -360714.86600814655, -489908.0383667992, -625211.9094385994, -611003.9783720945, -467340.19724609825, -609601.898145902, -562235.6906218161, -606954.736346571, -0.252, 0.992, 0.108, 192.0, 0.0, 0.0, 0.0, 0.0, 0.0, 0.0, 0.0, 0.0, 0.0, 1.7475192360991008E9, 0.0, 2025-05-17 15:00:36.099
97.0, -361966.7425115994, -494542.71728309605, -630684.5105510367, -616155.3402132202, -468576.60634238797, -614544.047658926, -563555.3376144574, -612122.6384785937, -0.252, 0.992, 0.108, 192.0, 0.0, 0.0, 0.0, 0.0, 0.0, 0.0, 0.0, 0.0, 0.0, 1.7475192360991344E9, 0.0, 2025-05-17 15:00:36.099
98.0, -363566.50156575465, -500521.4512969794, -637560.3541803783, -622679.456791813, -470164.3848615152, -620853.8557116814, -565225.6387741135, -618685.9153134723, -0.25, 0.986, 0.10400000000000001, 192.0, 248.0, 48.0, 30.0, 208.0, 3.0, 64.0, 0.0, 0.0, 0.0, 1.7475192360991654E9, 0.0, 2025-05-17 15:00:36.099
99.0, -365529.78939173097, -507928.81940946815, -645890.1340830487, -630632.7439108782, -472115.3345245522, -628596.8576189111, -567260.899217236, -626713.8572590181, -0.25, 0.986, 0.10400000000000001, 192.0, 0.0, 0.0, 0.0, 0.0, 0.0, 0.0, 0.0, 0.0, 0.0, 1.747519236099198E9, 0.0, 2025-05-17 15:00:36.099
100.0, -367021.9918515673, -513502.09277893224, -652331.1021722677, -636734.5019262435, -473592.6954260702, -634484.3071084389, -568821.3192011499, -632849.3217050221, -0.25, 0.986, 0.10400000000000001, 192.0, 0.0, 0.0, 0.0, 0.0, 0.0, 0.0, 0.0, 0.0, 0.0, 1.7475192360992281E9, 0.0, 2025-05-17 15:00:36.099
101.0, -368213.3398310351, -517893.22708764405, -657578.8447354847, -641650.7234156994, -474770.27473095356, -639190.869234904, -570078.0236814051, -637769.5665084799, -0.25, 0.986, 0.10400000000000001, 192.0, 0.0, 0.0, 0.0, 0.0, 0.0, 0.0, 0.0, 0.0, 0.0, 1.74751923609927E9, 0.0, 2025-05-17 15:00:36.099
102.0, -369716.7181630991, -523494.93187605526, -664070.8642090397, -647787.886594282, -476258.99031865486, -645127.4031552557, -571649.1725026575, -643944.9064665922, -0.25, 0.986, 0.10400000000000001, 192.0, 0.0, 0.0, 0.0, 0.0, 0.0, 0.0, 0.0, 0.0, 0.0, 1.7475192360993009E9, 0.0, 2025-05-17 15:00:36.099
103.0, -371358.9455317194, -529650.6022990468, -670973.1723038164, -654494.9298494972, -477889.3265592249, -651631.2243498832, -573362.5678256236, -650691.109978093, -0.25, 0.986, 0.10400000000000001, 192.0, 0.0, 0.0, 0.0, 0.0, 0.0, 0.0, 0.0, 0.0, 0.0, 1.7475192360993314E9, 0.0, 2025-05-17 15:00:36.099
104.0, -372605.72583743645, -534261.6777731988, -675489.7446024114, -659717.9066798576, -479121.4441205793, -656579.1853164656, -574678.638539152, -655833.1734935252, -0.25, 0.986, 0.10400000000000001, 192.0, 0.0, 0.0, 0.0, 0.0, 0.0, 0.0, 0.0, 0.0, 0.0, 1.747519236099367E9, 0.0, 2025-05-17 15:00:36.099
105.0, -373619.86918686266, -537961.8749573082, -678663.9605359985, -664072.6523485961, -480118.24251630815, -660603.3039812213, -575760.7311917223, -660024.1255788953, -0.25, 0.986, 0.10400000000000001, 192.0, 0.0, 0.0, 0.0, 0.0, 0.0, 0.0, 0.0, 0.0, 0.0, 1.7475192360993974E9, 0.0, 2025-05-17 15:00:36.099
106.0, -374789.7594916534, -542259.9366021081, -682457.3197909975, -669033.8455478961, -481268.9997278452, -665231.7244090706, -576997.8555438346, -664831.896404254, -0.25, 0.986, 0.10400000000000001, 192.0, 0.0, 0.0, 0.0, 0.0, 0.0, 0.0, 0.0, 0.0, 0.0, 1.747519236099428E9, 0.0, 2025-05-17 15:00:36.099
107.0, -376137.92731021973, -547271.6447438771, -686989.9853456003, -675322.8217748192, -482604.73997649434, -670591.1362875863, -578418.8900493253, -670376.3807268597, -0.25, 0.986, 0.10400000000000001, 192.0, 0.0, 0.0, 0.0, 0.0, 0.0, 0.0, 0.0, 0.0, 0.0, 1.7475192360994656E9, 0.0, 2025-05-17 15:00:36.099
108.0, -376977.90586685017, -550304.6870594844, -689495.5264920625, -680259.6068691739, -483434.3473236975, -673702.6779297207, -579330.5730021683, -673821.9468381342, -0.242, 0.992, 0.10200000000000001, 192.0, 248.0, 112.0, 31.0, 0.0, 3.0, 48.0, 0.0, 0.0, 0.0, 1.7475192360995145E9, 0.0, 2025-05-17 15:00:36.099
109.0, -377502.54601270513, -552088.4456739958, -690715.3952974553, -681805.7217366364, -483951.92431830463, -674924.2454676921, -579923.87770699, -675377.0024033788, -0.242, 0.992, 0.10200000000000001, 192.0, 0.0, 0.0, 0.0, 0.0, 0.0, 0.0, 0.0, 0.0, 0.0, 1.7475192360995476E9, 0.0, 2025-05-17 15:00:36.099
110.0, -378146.63388092926, -554332.7396312642, -692396.1570735165, -683424.792698001, -484596.906256307, -676544.4787197685, -580645.570831963, -677033.6242954284, -0.242, 0.992, 0.10200000000000001, 192.0, 0.0, 0.0, 0.0, 0.0, 0.0, 0.0, 0.0, 0.0, 0.0, 1.7475192360995786E9, 0.0, 2025-05-17 15:00:36.099
111.0, -379172.4001374722, -558094.5382230923, -695695.5427760533, -686571.2924684635, -485644.75603637175, -679344.7946721071, -581766.2872989521, -679953.6561910696, -0.242, 0.992, 0.10200000000000001, 192.0, 0.0, 0.0, 0.0, 0.0, 0.0, 0.0, 0.0, 0.0, 0.0, 1.7475192360996242E9, 0.0, 2025-05-17 15:00:36.099
112.0, -379912.95813476545, -560746.0809643365, -697893.702732766, -688601.546120828, -486413.2090107452, -681416.0861272915, -582604.8353439374, -682000.3607273533, -0.242, 0.992, 0.10200000000000001, 192.0, 0.0, 0.0, 0.0, 0.0, 0.0, 0.0, 0.0, 0.0, 0.0, 1.747519236099655E9, 0.0, 2025-05-17 15:00:36.099
113.0, -380297.13991846325, -561988.9273630294, -698588.0373225257, -689213.7156979699, -486819.02728307573, -682113.4605542971, -583082.7156403918, -682649.0083514462, -0.242, 0.992, 0.10200000000000001, 192.0, 0.0, 0.0, 0.0, 0.0, 0.0, 0.0, 0.0, 0.0, 0.0, 1.7475192360996857E9, 0.0, 2025-05-17 15:00:36.099
114.0, -380666.21192290925, -563164.8079353343, -699180.8055854804, -689759.277076635, -487208.57348544284, -682743.7797479368, -583544.0556459493, -683229.5278584395, -0.242, 0.992, 0.10200000000000001, 192.0, 0.0, 0.0, 0.0, 0.0, 0.0, 0.0, 0.0, 0.0, 0.0, 1.747519236099716E9, 0.0, 2025-05-17 15:00:36.099
115.0, -381427.3335251014, -565882.3330262104, -701453.7097756517, -691875.0932067744, -487994.72904142493, -684936.664692958, -584403.7037377005, -685407.2136172311, -0.242, 0.992, 0.10200000000000001, 192.0, 0.0, 0.0, 0.0, 0.0, 0.0, 0.0, 0.0, 0.0, 0.0, 1.7475192360997467E9, 0.0, 2025-05-17 15:00:36.099
116.0, -382007.9424390725, -567904.9870854601, -703004.2949920052, -693296.4853401763, -488600.2825022081, -686430.029443506, -585082.4815133192, -686872.9516116324, -0.242, 0.992, 0.10200000000000001, 192.0, 0.0, 0.0, 0.0, 0.0, 0.0, 0.0, 0.0, 0.0, 0.0, 1.7475192360998583E9, 0.0, 2025-05-17 15:00:36.099
117.0, -382221.17808117607, -568478.3540342277, -703027.9878411279, -693237.4767348144, -488833.1876794324, -686459.9807810761, -585388.4321914235, -686839.1557740159, -0.242, 0.992, 0.10200000000000001, 192.0, 0.0, 0.0, 0.0, 0.0, 0.0, 0.0, 0.0, 0.0, 0.0, 1.7475192360998895E9, 0.0, 2025-05-17 15:00:36.099
118.0, -382373.3487574278, -568808.8022242549, -702684.1286044274, -692927.4133357303, -489004.49144893786, -686248.7120924846, -585633.5861246093, -686554.036921744, -0.244, 0.99, 0.106, 192.0, 248.0, 96.0, 30.0, 240.0, 3.0, 80.0, 0.0, 0.0, 0.0, 1.7475192360999205E9, 0.0, 2025-05-17 15:00:36.099
119.0, -382953.77885744325, -570809.1939460271, -703813.4281412874, -694334.5003526808, -489606.9156654973, -687724.7318893352, -586310.9333885829, -688002.876997337, -0.244, 0.99, 0.106, 192.0, 0.0, 0.0, 0.0, 0.0, 0.0, 0.0, 0.0, 0.0, 0.0, 1.7475192360999537E9, 0.0, 2025-05-17 15:00:36.099
120.0, -383483.515201034, -572622.3674562416, -704756.2247224123, -695572.0717396822, -490160.8813000776, -689021.0436607652, -586938.3021519545, -689265.1247102171, -0.244, 0.99, 0.106, 192.0, 0.0, 0.0, 0.0, 0.0, 0.0, 0.0, 0.0, 0.0, 0.0, 1.7475192360999844E9, 0.0, 2025-05-17 15:00:36.099
121.0, -383610.83073745144, -572861.3523079577, -704701.8652798969, -695181.542060559, -490311.0850228173, -688730.2027619127, -587161.5513755741, -688898.3772871945, -0.244, 0.99, 0.106, 192.0, 0.0, 0.0, 0.0, 0.0, 0.0, 0.0, 0.0, 0.0, 0.0, 1.7475192365773823E9, 0.0, 2025-05-17 15:00:36.577
122.0, -383650.88506351534, -572752.9016438606, -704209.0540181464, -694414.0725629417, -490371.0771049353, -688077.1741959065, -587293.5160748382, -688160.8591271471, -0.244, 0.99, 0.106, 192.0, 0.0, 0.0, 0.0, 0.0, 0.0, 0.0, 0.0, 0.0, 0.0, 1.7475192365774612E9, 0.0, 2025-05-17 15:00:36.577
123.0, -384098.90342937753, -574243.8524060074, -704482.3711493458, -695293.0325619022, -490842.2518780532, -689029.3585097026, -587840.239744215, -689075.4031032805, -0.244, 0.99, 0.106, 192.0, 0.0, 0.0, 0.0, 0.0, 0.0, 0.0, 0.0, 0.0, 0.0, 1.7475192365775125E9, 0.0, 2025-05-17 15:00:36.577
124.0, -384835.2592987132, -576880.3747749776, -705032.2240629464, -697397.1363779469, -491605.0722128239, -691144.7276049528, -588678.966603156, -691177.7187797688, -0.244, 0.99, 0.106, 192.0, 0.0, 0.0, 0.0, 0.0, 0.0, 0.0, 0.0, 0.0, 0.0, 1.7475192365775597E9, 0.0, 2025-05-17 15:00:36.577
125.0, -385273.442897015, -578338.7813971974, -705134.6844595295, -698292.1002259374, -492064.1770439359, -692073.9343254488, -589212.6368537708, -692064.2783718441, -0.244, 0.99, 0.106, 192.0, 0.0, 0.0, 0.0, 0.0, 0.0, 0.0, 0.0, 0.0, 0.0, 1.7475192365776064E9, 0.0, 2025-05-17 15:00:36.577
126.0, -385451.6310038127, -578770.4382861183, -705134.4162385961, -698083.781967614, -492260.6041742092, -691962.6226380614, -589481.7518570127, -691883.5868696674, -0.244, 0.99, 0.106, 192.0, 0.0, 0.0, 0.0, 0.0, 0.0, 0.0, 0.0, 0.0, 0.0, 1.7475192365776844E9, 0.0, 2025-05-17 15:00:36.577
127.0, -385931.65706773486, -580381.1049915678, -705234.2838328223, -699117.7736661165, -492761.81969187496, -693042.3013022306, -590057.3539802259, -692923.7476496396, -0.244, 0.99, 0.106, 192.0, 0.0, 0.0, 0.0, 0.0, 0.0, 0.0, 0.0, 0.0, 0.0, 1.7475192365777197E9, 0.0, 2025-05-17 15:00:36.577
128.0, -386676.95363485266, -583042.0354654832, -705426.1512072267, -701346.063774355, -493532.86546860525, -695206.6654213269, -590903.4122113481, -695081.585059355, -0.25, 0.99, 0.116, 192.0, 248.0, 48.0, 30.0, 240.0, 3.0, 160.0, 0.0, 0.0, 0.0, 1.7475192365777507E9, 0.0, 2025-05-17 15:00:36.577
129.0, -387098.9545701688, -584440.1817846515, -705518.4192083383, -702227.70598265, -493977.0393344211, -696092.4203506018, -591423.2243804007, -695927.6432904772, -0.25, 0.99, 0.116, 192.0, 0.0, 0.0, 0.0, 0.0, 0.0, 0.0, 0.0, 0.0, 0.0, 1.7475192365777862E9, 0.0, 2025-05-17 15:00:36.577
130.0, -387301.19315400044, -584969.3816863754, -705518.7768362495, -702125.245586067, -494198.142790573, -696078.6516760173, -591719.6085118781, -695841.0079289685, -0.25, 0.99, 0.116, 192.0, 0.0, 0.0, 0.0, 0.0, 0.0, 0.0, 0.0, 0.0, 0.0, 1.747519236577818E9, 0.0, 2025-05-17 15:00:36.577
131.0, -387734.2805545665, -586397.0323082247, -705595.1303953088, -702848.2798157072, -494652.8666797718, -696988.1888613927, -592249.1660415132, -696704.0534858768, -0.25, 0.99, 0.116, 192.0, 0.0, 0.0, 0.0, 0.0, 0.0, 0.0, 0.0, 0.0, 0.0, 1.7475192365778704E9, 0.0, 2025-05-17 15:00:36.577
132.0, -388526.06875015126, -589238.4754703612, -705820.1677584848, -704928.3331547182, -495471.7451896364, -699430.4298675574, -593142.2523429695, -699131.3635267454, -0.25, 0.99, 0.116, 192.0, 0.0, 0.0, 0.0, 0.0, 0.0, 0.0, 0.0, 0.0, 0.0, 1.7475192365779018E9, 0.0, 2025-05-17 15:00:36.577
133.0, -388992.41554646683, -590796.8390937853, -705927.7243528038, -705777.6994440198, -495960.53313738503, -700569.5641719776, -593703.6387567089, -700215.6913537611, -0.25, 0.99, 0.116, 192.0, 0.0, 0.0, 0.0, 0.0, 0.0, 0.0, 0.0, 0.0, 0.0, 1.7475192365779326E9, 0.0, 2025-05-17 15:00:36.577
134.0, -389181.60071153654, -591265.6892854797, -705922.2705271567, -705767.4176415703, -496169.6560585089, -700506.9792875027, -593983.9296321785, -700076.6635032492, -0.25, 0.99, 0.116, 192.0, 0.0, 0.0, 0.0, 0.0, 0.0, 0.0, 0.0, 0.0, 0.0, 1.7475192365779634E9, 0.0, 2025-05-17 15:00:36.577
135.0, -389511.2442387634, -592283.6771349523, -705967.0634230451, -705783.7791185116, -496521.11488832417, -700995.7672352514, -594406.5564163395, -700512.7013340833, -0.25, 0.99, 0.116, 192.0, 0.0, 0.0, 0.0, 0.0, 0.0, 0.0, 0.0, 0.0, 0.0, 1.747519236577994E9, 0.0, 2025-05-17 15:00:36.577
136.0, -390285.15103878395, -595046.5315635839, -706167.3350533647, -706092.2331919948, -497321.4861537798, -703383.3805779673, -595280.8672524532, -702911.4905490269, -0.25, 0.99, 0.116, 192.0, 0.0, 0.0, 0.0, 0.0, 0.0, 0.0, 0.0, 0.0, 0.0, 1.7475192365780244E9, 0.0, 2025-05-17 15:00:36.578
137.0, -390908.85411606485, -597236.2872643814, -706311.2802876568, -706253.2551590509, -497969.15030111675, -705108.4882150278, -596005.4214007165, -704655.0160235186, -0.25, 0.99, 0.116, 192.0, 0.0, 0.0, 0.0, 0.0, 0.0, 0.0, 0.0, 0.0, 0.0, 1.7475192365780556E9, 0.0, 2025-05-17 15:00:36.578
138.0, -391293.6617486074, -598479.5806979634, -706374.2228000431, -706318.1646249491, -498373.8956897135, -705817.8431770615, -596485.7156855721, -705336.7442294055, -0.24, 0.992, 0.124, 192.0, 248.0, 128.0, 31.0, 0.0, 3.0, 224.0, 0.0, 0.0, 0.0, 1.747519236578086E9, 0.0, 2025-05-17 15:00:36.578
139.0, -391695.5461139138, -599787.8730044214, -706444.5860915884, -706389.6902072061, -498796.7012878301, -706144.715087976, -596982.7290752804, -705823.565223642, -0.24, 0.992, 0.124, 192.0, 0.0, 0.0, 0.0, 0.0, 0.0, 0.0, 0.0, 0.0, 0.0, 1.7475192365781207E9, 0.0, 2025-05-17 15:00:36.578
140.0, -392517.37505404657, -602737.4092027437, -706654.1560476013, -706603.1940702432, -499642.2230770854, -706508.0650458414, -597903.7103538169, -706724.5193391466, -0.24, 0.992, 0.124, 192.0, 0.0, 0.0, 0.0, 0.0, 0.0, 0.0, 0.0, 0.0, 0.0, 1.7475192365783596E9, 0.0, 2025-05-17 15:00:36.578
141.0, -393211.79905078403, -605195.7434649162, -706816.8767472359, -706768.328758279, -500361.8598415685, -706693.6739317983, -598697.6443168693, -707020.0094008457, -0.24, 0.992, 0.124, 192.0, 0.0, 0.0, 0.0, 0.0, 0.0, 0.0, 0.0, 0.0, 0.0, 1.7475192365783937E9, 0.0, 2025-05-17 15:00:36.578
142.0, -393573.1820551374, -606343.103211296, -706881.4285852228, -706833.2382241772, -500746.3992531776, -706759.298653519, -599154.5139735359, -707086.438785367, -0.24, 0.992, 0.124, 192.0, 0.0, 0.0, 0.0, 0.0, 0.0, 0.0, 0.0, 0.0, 0.0, 1.7475192365784247E9, 0.0, 2025-05-17 15:00:36.578
143.0, -393929.46886175504, -607464.8925620189, -706938.7384580063, -706890.816317894, -501124.3225484279, -706817.6814100363, -599605.5721766439, -707145.6262046846, -0.24, 0.992, 0.124, 192.0, 0.0, 0.0, 0.0, 0.0, 0.0, 0.0, 0.0, 0.0, 0.0, 1.7475192365784564E9, 0.0, 2025-05-17 15:00:36.578
144.0, -394723.671045741, -610301.060712464, -707138.2948325032, -707091.7137970583, -501941.85995362524, -707020.6352496905, -600498.1220362332, -707349.7423350505, -0.24, 0.992, 0.124, 192.0, 0.0, 0.0, 0.0, 0.0, 0.0, 0.0, 0.0, 0.0, 0.0, 1.7475192365784874E9, 0.0, 2025-05-17 15:00:36.578
145.0, -395426.2310774602, -612797.3035332327, -707307.2740205853, -707261.4976479409, -502670.3480089126, -707191.8496122181, -601304.0365343138, -707521.3143254893, -0.24, 0.992, 0.124, 192.0, 0.0, 0.0, 0.0, 0.0, 0.0, 0.0, 0.0, 0.0, 0.0, 1.7475192365785377E9, 0.0, 2025-05-17 15:00:36.578
146.0, -395698.38591794804, -613606.9731243817, -707344.3779163811, -707298.7803576924, -502966.3745124787, -707229.4005429031, -601674.4496434272, -707558.8652561742, -0.24, 0.992, 0.124, 192.0, 0.0, 0.0, 0.0, 0.0, 0.0, 0.0, 0.0, 0.0, 0.0, 1.7475192365785697E9, 0.0, 2025-05-17 15:00:36.578
147.0, -395893.2931295983, -614112.1225490717, -707346.9707187379, -707301.0155321378, -503183.7228755621, -707232.0827522377, -601965.3799492574, -707561.3686515533, -0.24, 0.992, 0.124, 192.0, 0.0, 0.0, 0.0, 0.0, 0.0, 0.0, 0.0, 0.0, 0.0, 1.7475192365786004E9, 0.0, 2025-05-17 15:00:36.578
148.0, -396489.01182282116, -616181.8046786552, -707481.2599994255, -707435.6624407367, -503802.5979760406, -707366.8190678143, -602660.3403878618, -707696.6414089968, -0.248, 0.986, 0.114, 192.0, 248.0, 64.0, 30.0, 208.0, 3.0, 144.0, 0.0, 0.0, 0.0, 1.747519236578631E9, 0.0, 2025-05-17 15:00:36.578
149.0, -397276.4190764927, -619011.4461197193, -707681.1740018338, -707636.023478034, -504617.27435794764, -707567.0906981338, -603549.4927822939, -707897.5388881611, -0.248, 0.986, 0.114, 192.0, 0.0, 0.0, 0.0, 0.0, 0.0, 0.0, 0.0, 0.0, 0.0, 1.7475192365786653E9, 0.0, 2025-05-17 15:00:36.578
150.0, -397752.5112333907, -620612.6356855197, -707777.7335378807, -707733.6558978148, -505114.01952672243, -707664.544303959, -604121.1609984828, -707995.1713079419, -0.248, 0.986, 0.114, 192.0, 0.0, 0.0, 0.0, 0.0, 0.0, 0.0, 0.0, 0.0, 0.0, 1.7475192365786965E9, 0.0, 2025-05-17 15:00:36.578
151.0, -398193.19822707155, -622068.0024704937, -707856.6798992968, -707812.9598871422, -505573.0349508566, -707744.027107242, -604655.725318876, -708075.0117391362, -0.248, 0.986, 0.114, 192.0, 0.0, 0.0, 0.0, 0.0, 0.0, 0.0, 0.0, 0.0, 0.0, 1.7475192365787275E9, 0.0, 2025-05-17 15:00:36.578
152.0, -398924.0108637823, -624654.4569318839, -708037.10318054, -707993.3831683855, -506325.8417041113, -707924.2715745297, -605485.9585149239, -708254.2727296678, -0.248, 0.986, 0.114, 192.0, 0.0, 0.0, 0.0, 0.0, 0.0, 0.0, 0.0, 0.0, 0.0, 1.7475192365787575E9, 0.0, 2025-05-17 15:00:36.578
153.0, -399796.2653394062, -627804.4435744815, -708258.2960436698, -708215.2018803599, -507224.203017259, -708146.3585074376, -606461.656863887, -708470.727022973, -0.248, 0.986, 0.114, 192.0, 0.0, 0.0, 0.0, 0.0, 0.0, 0.0, 0.0, 0.0, 0.0, 1.7475192365787888E9, 0.0, 2025-05-17 15:00:36.578
154.0, -400416.2133236186, -629972.3839726907, -708404.2976384518, -708361.2928821198, -507868.29088548315, -708292.6283231531, -607193.1847564203, -708618.0697224224, -0.248, 0.986, 0.114, 192.0, 0.0, 0.0, 0.0, 0.0, 0.0, 0.0, 0.0, 0.0, 0.0, 1.74751923657882E9, 0.0, 2025-05-17 15:00:36.578
155.0, -400853.4134451644, -631426.9460948642, -708489.5024883155, -708446.6765459391, -508327.9321584621, -708377.1179171941, -607959.1343354147, -708704.8838978868, -0.248, 0.986, 0.114, 192.0, 0.0, 0.0, 0.0, 0.0, 0.0, 0.0, 0.0, 0.0, 0.0, 1.747519236578908E9, 0.0, 2025-05-17 15:00:36.578
156.0, -401417.0350333494, -633362.4283507381, -708609.9336874407, -708567.0183380864, -508914.08430505806, -708497.1020814303, -608650.5184949063, -708828.801969147, -0.248, 0.986, 0.114, 192.0, 0.0, 0.0, 0.0, 0.0, 0.0, 0.0, 0.0, 0.0, 0.0, 1.7475192365789397E9, 0.0, 2025-05-17 15:00:36.578
157.0, -402269.1729389636, -636433.8262598307, -708826.2091667902, -708783.293817436, -509793.31252495205, -708712.9305258907, -609275.294455921, -709045.34566943, -0.248, 0.986, 0.114, 192.0, 0.0, 0.0, 0.0, 0.0, 0.0, 0.0, 0.0, 0.0, 0.0, 1.7475192365789704E9, 0.0, 2025-05-17 15:00:36.578
158.0, -402919.34048167954, -638724.9694734776, -708983.1184128665, -708940.2030635122, -510467.4411377241, -708869.7503649892, -609679.7716235843, -709202.6125434176, -0.252, 0.996, 0.108, 192.0, 248.0, 32.0, 31.0, 32.0, 3.0, 96.0, 0.0, 0.0, 0.0, 1.7475192365790017E9, 0.0, 2025-05-17 15:00:36.579
159.0, -403326.4104516996, -640061.3355709715, -709054.1969602343, -709011.7286457693, -510894.98530566524, -708940.7395053792, -609837.0384975718, -709273.8699047411, -0.252, 0.996, 0.108, 192.0, 0.0, 0.0, 0.0, 0.0, 0.0, 0.0, 0.0, 0.0, 0.0, 1.7475192365790353E9, 0.0, 2025-05-17 15:00:36.579
160.0, -403794.7242015272, -641634.1831248025, -709142.0840194325, -709099.7051119453, -511388.1541953271, -709028.358343644, -610057.6949188346, -709361.7569639394, -0.252, 0.996, 0.108, 192.0, 0.0, 0.0, 0.0, 0.0, 0.0, 0.0, 0.0, 0.0, 0.0, 1.747519236579082E9, 0.0, 2025-05-17 15:00:36.579
161.0, -404477.7935120814, -644055.4134911792, -709311.5996493816, -709269.6677767835, -512100.9066225179, -709197.9633805709, -610499.1865753158, -709531.8090357553, -0.252, 0.996, 0.108, 192.0, 0.0, 0.0, 0.0, 0.0, 0.0, 0.0, 0.0, 0.0, 0.0, 1.7475192365791185E9, 0.0, 2025-05-17 15:00:36.579
162.0, -404944.49793630815, -645639.2581032823, -709403.420615604, -709361.7569639394, -512592.2873726234, -709289.8737537711, -610721.8993570685, -709623.8088159334, -0.252, 0.996, 0.108, 192.0, 0.0, 0.0, 0.0, 0.0, 0.0, 0.0, 0.0, 0.0, 0.0, 1.7475192365791495E9, 0.0, 2025-05-17 15:00:36.579
163.0, -405590.82097897783, -647925.3051191933, -709554.3395941663, -709512.6759425016, -513259.7104620589, -709440.2562904664, -611121.0121060625, -709774.2807596065, -0.252, 0.996, 0.108, 192.0, 0.0, 0.0, 0.0, 0.0, 0.0, 0.0, 0.0, 0.0, 0.0, 1.747519236579181E9, 0.0, 2025-05-17 15:00:36.579
164.0, -406669.96320128004, -651888.4482250748, -709847.2368535086, -709805.7520157995, -514358.0751845927, -709733.0641428309, -611952.0499649108, -710067.2674259266, -0.252, 0.996, 0.108, 192.0, 0.0, 0.0, 0.0, 0.0, 0.0, 0.0, 0.0, 0.0, 0.0, 1.7475192365792127E9, 0.0, 2025-05-17 15:00:36.579
165.0, -408387.7394661593, -658345.3307563461, -710346.5748246402, -710304.8217659977, -516101.1536241953, -710231.0610092952, -613428.6062036284, -710566.6053970582, -0.252, 0.996, 0.108, 192.0, 0.0, 0.0, 0.0, 0.0, 0.0, 0.0, 0.0, 0.0, 0.0, 1.7475192365792437E9, 0.0, 2025-05-17 15:00:36.579
166.0, -410349.77559444617, -665780.3256249817, -710928.9718781677, -710887.5764474365, -518088.8495551169, -710811.759330244, -615151.6574801991, -711148.376601741, -0.252, 0.996, 0.108, 192.0, 0.0, 0.0, 0.0, 0.0, 0.0, 0.0, 0.0, 0.0, 0.0, 1.747519236579275E9, 0.0, 2025-05-17 15:00:36.579
167.0, -411955.34610215976, -671831.3898839224, -711400.3254652412, -711359.1088484656, -519717.8446910197, -711281.6824056724, -616515.2927059284, -711619.2831539253, -0.252, 0.996, 0.108, 192.0, 0.0, 0.0, 0.0, 0.0, 0.0, 0.0, 0.0, 0.0, 0.0, 1.747519236579306E9, 0.0, 2025-05-17 15:00:36.579
168.0, -412880.7977295873, -675218.2156107683, -711646.3734682052, -711604.7098165405, -520664.6645861465, -711526.7469318804, -617195.679807148, -711864.7053080447, -0.262, 0.988, 0.1, 192.0, 247.0, 208.0, 30.0, 224.0, 3.0, 32.0, 0.0, 0.0, 0.0, 1.747519236579338E9, 0.0, 2025-05-17 15:00:36.579
169.0, -413757.6119610801, -678418.7171958348, -711867.4769243571, -711826.2603075815, -521566.06573654007, -711747.4033531431, -617830.1117217675, -712085.9875781522, -0.262, 0.988, 0.1, 192.0, 0.0, 0.0, 0.0, 0.0, 0.0, 0.0, 0.0, 0.0, 0.0, 1.747519236579372E9, 0.0, 2025-05-17 15:00:36.579
170.0, -414565.0463777836, -681372.4555221148, -712073.7388221907, -712032.6116123929, -522401.0375024125, -711952.502960265, -618398.471879777, -712292.2494759858, -0.262, 0.988, 0.1, 192.0, 0.0, 0.0, 0.0, 0.0, 0.0, 0.0, 0.0, 0.0, 0.0, 1.7475192365794544E9, 0.0, 2025-05-17 15:00:36.579
171.0, -414954.5031731729, -682683.6982588408, -712147.4995788932, -712105.8359272284, -522814.5447748357, -712025.9060890563, -618544.0264396699, -712365.5631977991, -0.262, 0.988, 0.1, 192.0, 0.0, 0.0, 0.0, 0.0, 0.0, 0.0, 0.0, 0.0, 0.0, 1.747519236579486E9, 0.0, 2025-05-17 15:00:36.579
172.0, -414948.06587076973, -682432.3752441854, -712076.4210315254, -712034.8467868385, -522826.6147168416, -711955.2745765776, -618288.411890079, -712294.5740574091, -0.262, 0.988, 0.1, 192.0, 0.0, 0.0, 0.0, 0.0, 0.0, 0.0, 0.0, 0.0, 0.0, 1.747519236579517E9, 0.0, 2025-05-17 15:00:36.579
173.0, -415023.79358098435, -682499.07284964, -712040.0323915521, -711998.4581468652, -522924.60476453364, -711919.06475056, -618118.0021903518, -712258.7218593028, -0.262, 0.988, 0.1, 192.0, 0.0, 0.0, 0.0, 0.0, 0.0, 0.0, 0.0, 0.0, 0.0, 1.747519236579548E9, 0.0, 2025-05-17 15:00:36.579
174.0, -415197.06430400186, -682963.9891343104, -712033.5056821711, -711991.3055886395, -523122.46240645205, -711912.2698202456, -618048.6223755626, -712251.6587080549, -0.262, 0.988, 0.1, 192.0, 0.0, 0.0, 0.0, 0.0, 0.0, 0.0, 0.0, 0.0, 0.0, 1.7475192365795784E9, 0.0, 2025-05-17 15:00:36.579
175.0, -415309.80650303443, -683190.2781951759, -712002.7496818006, -711960.9966231581, -523256.6622801617, -711881.6926338307, -617915.0483506976, -712220.8133007066, -0.262, 0.988, 0.1, 192.0, 0.0, 0.0, 0.0, 0.0, 0.0, 0.0, 0.0, 0.0, 0.0, 1.747519236579626E9, 0.0, 2025-05-17 15:00:36.579
176.0, -415467.1627839998, -683610.1333630244, -711985.9411699702, -711945.082181106, -523433.9563171812, -711865.3311568894, -617824.1214542534, -712204.3624167875, -0.262, 0.988, 0.1, 192.0, 0.0, 0.0, 0.0, 0.0, 0.0, 0.0, 0.0, 0.0, 0.0, 1.7475192365796573E9, 0.0, 2025-05-17 15:00:36.579
177.0, -415883.173451802, -685857.6459714945, -712061.2218452957, -712019.4687866531, -523867.133124725, -711940.075390348, -617987.5574097106, -712279.2854642017, -0.262, 0.988, 0.1, 192.0, 0.0, 0.0, 0.0, 0.0, 0.0, 0.0, 0.0, 0.0, 0.0, 1.7475192365796883E9, 0.0, 2025-05-17 15:00:36.579
178.0, -416616.31066993607, -689182.155034799, -712233.3302776016, -712191.4878119812, -524603.1313661494, -712112.0050086982, -618453.993613004, -712451.0362685963, -0.262, 0.982, 0.092, 192.0, 247.0, 208.0, 30.0, 176.0, 2.0, 224.0, 0.0, 0.0, 0.0, 1.747519236579719E9, 0.0, 2025-05-17 15:00:36.579
179.0, -417652.2693219506, -692311.5780724976, -712504.3228273777, -712462.659175713, -525631.1327971378, -712382.5505235852, -619216.5457268412, -712721.9394113945, -0.262, 0.982, 0.092, 192.0, 0.0, 0.0, 0.0, 0.0, 0.0, 0.0, 0.0, 0.0, 0.0, 1.7475192365797532E9, 0.0, 2025-05-17 15:00:36.579
180.0, -418673.29700866906, -695288.2939920776, -712770.0403654624, -712728.3767137977, -526641.7892744291, -712647.2845849139, -619960.858817203, -712987.4781355236, -0.262, 0.982, 0.092, 192.0, 0.0, 0.0, 0.0, 0.0, 0.0, 0.0, 0.0, 0.0, 0.0, 1.7475192365797844E9, 0.0, 2025-05-17 15:00:36.579
181.0, -419680.37720684736, -698210.292841231, -713021.8998219848, -712980.0573563644, -527640.3758097143, -712898.9652274806, -620691.492639958, -713238.9799641347, -0.262, 0.982, 0.092, 192.0, 0.0, 0.0, 0.0, 0.0, 0.0, 0.0, 0.0, 0.0, 0.0, 1.7475192365798151E9, 0.0, 2025-05-17 15:00:36.579
182.0, -420868.05950022454, -701881.7903854598, -713338.9369653389, -713297.1839066964, -528826.3593705129, -713215.3765219899, -621610.3281510267, -713555.6594795776, -0.262, 0.982, 0.092, 192.0, 0.0, 0.0, 0.0, 0.0, 0.0, 0.0, 0.0, 0.0, 0.0, 1.7475192365798457E9, 0.0, 2025-05-17 15:00:36.579
183.0, -421727.97581290914, -704314.733065931, -713552.2620144204, -713510.6877697335, -529681.2688924395, -713428.4333501379, -622198.2684371792, -713768.6269007477, -0.262, 0.982, 0.092, 192.0, 0.0, 0.0, 0.0, 0.0, 0.0, 0.0, 0.0, 0.0, 0.0, 1.747519236579876E9, 0.0, 2025-05-17 15:00:36.579
184.0, -421656.6290446078, -702998.6623524026, -713448.1028852586, -713406.3498266161, -529598.7462519105, -713324.363627954, -621845.1108747853, -713664.5571785638, -0.262, 0.982, 0.092, 192.0, 0.0, 0.0, 0.0, 0.0, 0.0, 0.0, 0.0, 0.0, 0.0, 1.7475192365799067E9, 0.0, 2025-05-17 15:00:36.579
185.0, -421508.0346474689, -701342.040460353, -713325.6153256436, -713283.6834530453, -529434.5056336529, -713202.0548822946, -621412.7387300419, -713541.9802119709, -0.262, 0.982, 0.092, 192.0, 0.0, 0.0, 0.0, 0.0, 0.0, 0.0, 0.0, 0.0, 0.0, 1.747519236580048E9, 0.0, 2025-05-17 15:00:36.580
186.0, -421900.9783149932, -701852.5543037122, -713379.7065472254, -713337.864081605, -529818.5086033951, -713256.1461038764, -621528.2525453869, -713596.2502475084, -0.262, 0.982, 0.092, 192.0, 0.0, 0.0, 0.0, 0.0, 0.0, 0.0, 0.0, 0.0, 0.0, 1.7475192365800793E9, 0.0, 2025-05-17 15:00:36.580
187.0, -422214.170958301, -702071.0649575073, -713404.7405010153, -713363.4344772618, -530122.3135140316, -713281.358871622, -621563.7471155819, -713621.0159803649, -0.262, 0.982, 0.092, 192.0, 0.0, 0.0, 0.0, 0.0, 0.0, 0.0, 0.0, 0.0, 0.0, 1.7475192365801103E9, 0.0, 2025-05-17 15:00:36.580
188.0, -422263.34479610267, -701236.2720055905, -713346.6259654314, -713305.3199416781, -530161.4737703173, -713223.2443360382, -621331.3783802246, -713563.0802587367, -0.268, 0.9540000000000001, 0.076, 192.0, 247.0, 160.0, 29.0, 208.0, 2.0, 96.0, 0.0, 0.0, 0.0, 1.747519236580141E9, 0.0, 2025-05-17 15:00:36.580
189.0, -422429.73118182796, -700855.5770940277, -713328.6551628894, -713286.9915112248, -530316.3266559037, -713205.1841265183, -621218.0103323472, -713545.1988631724, -0.268, 0.9540000000000001, 0.076, 192.0, 0.0, 0.0, 0.0, 0.0, 0.0, 0.0, 0.0, 0.0, 0.0, 1.7475192365801888E9, 0.0, 2025-05-17 15:00:36.580
190.0, -423128.2678995452, -702594.8110335841, -713481.4516879859, -713439.2515944543, -531008.6942921513, -713357.4442097478, -621644.8392444658, -713697.5483533798, -0.268, 0.9540000000000001, 0.076, 192.0, 0.0, 0.0, 0.0, 0.0, 0.0, 0.0, 0.0, 0.0, 0.0, 1.74751923658022E9, 0.0, 2025-05-17 15:00:36.580
191.0, -423779.7765469285, -704193.7654249389, -713625.7545501894, -713583.8226775912, -531655.7325906435, -713501.5682579956, -622024.7294932281, -713841.9406225611, -0.268, 0.9540000000000001, 0.076, 192.0, 0.0, 0.0, 0.0, 0.0, 0.0, 0.0, 0.0, 0.0, 0.0, 1.7475192365802522E9, 0.0, 2025-05-17 15:00:36.580
192.0, -423970.30281666556, -703940.1178288601, -713612.2540965384, -713570.2328169624, -531837.9440114432, -713487.8889903891, -621937.9153177638, -713828.4401689101, -0.268, 0.9540000000000001, 0.076, 192.0, 0.0, 0.0, 0.0, 0.0, 0.0, 0.0, 0.0, 0.0, 0.0, 1.7475192365802832E9, 0.0, 2025-05-17 15:00:36.580
193.0, -423979.60114235897, -702923.918118944, -713532.7712932553, -713490.6606067015, -531836.6029067759, -713408.5850010616, -621666.6545470542, -713749.0467726048, -0.268, 0.9540000000000001, 0.076, 192.0, 0.0, 0.0, 0.0, 0.0, 0.0, 0.0, 0.0, 0.0, 0.0, 1.747519236580314E9, 0.0, 2025-05-17 15:00:36.580
194.0, -424542.9545096105, -704123.7597613048, -713652.3084226022, -713610.1083290706, -532392.4460878904, -713527.6750955195, -621953.7403528381, -713868.5839019518, -0.268, 0.9540000000000001, 0.076, 192.0, 0.0, 0.0, 0.0, 0.0, 0.0, 0.0, 0.0, 0.0, 0.0, 1.7475192365803444E9, 0.0, 2025-05-17 15:00:36.580
195.0, -425252.3094716441, -705969.3880044685, -713816.9960757489, -713774.7065752395, -533094.2014568093, -713692.1839347106, -622388.7052999384, -714032.6457062538, -0.268, 0.9540000000000001, 0.076, 192.0, 0.0, 0.0, 0.0, 0.0, 0.0, 0.0, 0.0, 0.0, 0.0, 1.7475192365803752E9, 0.0, 2025-05-17 15:00:36.580
196.0, -425515.3448003942, -706004.8825746635, -713820.6617618396, -713778.461668308, -533346.7761691542, -713695.8496208012, -622373.9531485979, -714036.3113923444, -0.268, 0.9540000000000001, 0.076, 192.0, 0.0, 0.0, 0.0, 0.0, 0.0, 0.0, 0.0, 0.0, 0.0, 1.7475192365804057E9, 0.0, 2025-05-17 15:00:36.580
197.0, -425555.4885334359, -705105.8060056933, -713756.8251796752, -713714.6250861437, -533378.0686113917, -713632.0130386369, -622134.9682968818, -713972.7430311135, -0.268, 0.9540000000000001, 0.076, 192.0, 0.0, 0.0, 0.0, 0.0, 0.0, 0.0, 0.0, 0.0, 0.0, 1.7475192365804367E9, 0.0, 2025-05-17 15:00:36.580
198.0, -426015.9344692152, -705908.4124455944, -713833.983401535, -713792.3197498703, -533830.6467331228, -713709.6182953857, -622320.1301479496, -714050.3482878624, -0.274, 0.9500000000000001, 0.076, 192.0, 247.0, 112.0, 29.0, 176.0, 2.0, 96.0, 0.0, 0.0, 0.0, 1.7475192365804672E9, 0.0, 2025-05-17 15:00:36.580
199.0, -426759.8899316657, -707966.3822610835, -714017.8935549132, -713976.3193102264, -534569.7742187708, -713893.1708208526, -622793.5400955129, -714234.079627285, -0.274, 0.9500000000000001, 0.076, 192.0, 0.0, 0.0, 0.0, 0.0, 0.0, 0.0, 0.0, 0.0, 0.0, 1.7475192365805132E9, 0.0, 2025-05-17 15:00:36.580
200.0, -427028.1108651294, -708040.9476805864, -714028.8012062075, -713987.2269615206, -534829.1438614302, -713904.0784721469, -622785.2252465755, -714245.2554995127, -0.274, 0.9500000000000001, 0.076, 192.0, 0.0, 0.0, 0.0, 0.0, 0.0, 0.0, 0.0, 0.0, 0.0, 1.747519236580544E9, 0.0, 2025-05-17 15:00:36.580
201.0, -427031.5083302866, -706953.4012023689, -713946.9044145233, -713905.508983792, -534819.219686892, -713822.1816804626, -622507.6165804407, -714163.1798938728, -0.274, 0.9500000000000001, 0.076, 192.0, 0.0, 0.0, 0.0, 0.0, 0.0, 0.0, 0.0, 0.0, 0.0, 1.7475192365805745E9, 0.0, 2025-05-17 15:00:36.580
202.0, -427371.70188089635, -707248.1760082456, -713976.4087172042, -713935.2815074065, -535148.6844001632, -713851.7753901214, -622569.8438370042, -714192.9524174873, -0.274, 0.9500000000000001, 0.076, 192.0, 0.0, 0.0, 0.0, 0.0, 0.0, 0.0, 0.0, 0.0, 0.0, 1.7475192365806055E9, 0.0, 2025-05-17 15:00:36.580
203.0, -428119.7700643266, -709343.6967544195, -714159.7824287156, -714117.7611491396, -535891.8351998134, -714034.7020667436, -623047.008877636, -714376.0579080652, -0.274, 0.9500000000000001, 0.076, 192.0, 0.0, 0.0, 0.0, 0.0, 0.0, 0.0, 0.0, 0.0, 0.0, 1.747519236580636E9, 0.0, 2025-05-17 15:00:36.580
204.0, -428402.117300286, -709501.7682912074, -714180.1672196588, -714138.056533105, -536164.7947031015, -714054.8186367535, -623052.015668394, -714396.3532920305, -0.274, 0.9500000000000001, 0.076, 192.0, 0.0, 0.0, 0.0, 0.0, 0.0, 0.0, 0.0, 0.0, 0.0, 1.74751923658068E9, 0.0, 2025-05-17 15:00:36.580
205.0, -428306.80946192855, -707981.1344124239, -714068.5873113379, -714026.5660317619, -536057.8639576273, -713943.5963563438, -622675.5228847889, -714284.3263488206, -0.274, 0.9500000000000001, 0.076, 192.0, 0.0, 0.0, 0.0, 0.0, 0.0, 0.0, 0.0, 0.0, 0.0, 1.7475192365807111E9, 0.0, 2025-05-17 15:00:36.580
206.0, -428453.9733474223, -707438.5234640269, -714030.8575666974, -713989.5515429439, -536194.567226716, -713906.4924605481, -622542.8429297023, -714247.4906739582, -0.274, 0.9500000000000001, 0.076, 192.0, 0.0, 0.0, 0.0, 0.0, 0.0, 0.0, 0.0, 0.0, 0.0, 1.7475192365807414E9, 0.0, 2025-05-17 15:00:36.580
207.0, -429196.23007729417, -709494.7945469373, -714202.7871850476, -714161.8387892054, -536931.1019100073, -714078.511485876, -623014.3753307314, -714419.5096992862, -0.274, 0.9500000000000001, 0.076, 192.0, 0.0, 0.0, 0.0, 0.0, 0.0, 0.0, 0.0, 0.0, 0.0, 1.747519236580772E9, 0.0, 2025-05-17 15:00:36.580
208.0, -429572.4546399659, -710079.9632167773, -714258.6665461859, -714217.3605224325, -537300.0845074755, -714134.3014400365, -623117.103948248, -714475.120839491, -0.28, 0.96, 0.092, 192.0, 247.0, 64.0, 30.0, 0.0, 2.0, 224.0, 0.0, 0.0, 0.0, 1.747519236580802E9, 0.0, 2025-05-17 15:00:36.580
209.0, -429428.1517777624, -708389.2772661778, -714136.6260214598, -714094.515334906, -537147.5562033125, -714011.8138804215, -622695.3712338653, -714352.633279876, -0.28, 0.96, 0.092, 192.0, 0.0, 0.0, 0.0, 0.0, 0.0, 0.0, 0.0, 0.0, 0.0, 1.747519236580835E9, 0.0, 2025-05-17 15:00:36.580
210.0, -429308.0782065485, -706728.3638391929, -714016.9100781572, -713974.9782055591, -537017.0220156935, -713892.2767510745, -622295.2750081152, -714233.096150529, -0.28, 0.96, 0.092, 192.0, 0.0, 0.0, 0.0, 0.0, 0.0, 0.0, 0.0, 0.0, 0.0, 1.7475192365808656E9, 0.0, 2025-05-17 15:00:36.580
211.0, -429814.3899219501, -707751.2690724456, -714113.3802072264, -714071.1801136947, -537516.1811728694, -713988.2998452544, -622528.448406273, -714329.2980586647, -0.28, 0.96, 0.092, 192.0, 0.0, 0.0, 0.0, 0.0, 0.0, 0.0, 0.0, 0.0, 0.0, 1.7475192365808964E9, 0.0, 2025-05-17 15:00:36.580
212.0, -429950.0203073049, -707286.442194753, -714088.8826953033, -714046.8614157274, -537642.5132325308, -713964.0705542649, -622387.8112301602, -714305.1581746528, -0.28, 0.96, 0.092, 192.0, 0.0, 0.0, 0.0, 0.0, 0.0, 0.0, 0.0, 0.0, 0.0, 1.7475192365809271E9, 0.0, 2025-05-17 15:00:36.580
213.0, -429491.0942901486, -704319.2034148221, -713862.1465995488, -713820.5723548619, -537172.1431222133, -713737.8709003772, -621646.3591630887, -714078.6902998317, -0.28, 0.96, 0.092, 192.0, 0.0, 0.0, 0.0, 0.0, 0.0, 0.0, 0.0, 0.0, 0.0, 1.747519236580958E9, 0.0, 2025-05-17 15:00:36.580
214.0, -429143.5693673575, -701851.2131990449, -713666.0770971867, -713623.966410633, -536812.9058853276, -713541.8908049931, -621015.2353066487, -713882.6207974697, -0.28, 0.96, 0.092, 192.0, 0.0, 0.0, 0.0, 0.0, 0.0, 0.0, 0.0, 0.0, 0.0, 1.7475192365810003E9, 0.0, 2025-05-17 15:00:36.581
215.0, -429621.896698701, -702701.0265232357, -713739.8378538892, -713697.5483533798, -537283.0077747116, -713615.5621547177, -621218.8149951476, -713956.2921471945, -0.28, 0.96, 0.092, 192.0, 0.0, 0.0, 0.0, 0.0, 0.0, 0.0, 0.0, 0.0, 0.0, 1.747519236581031E9, 0.0, 2025-05-17 15:00:36.581
216.0, -430110.6846464497, -703636.3129182236, -713833.0893317568, -713790.978645203, -537764.1961293455, -713708.5454116518, -621433.3917419186, -714049.4542180842, -0.28, 0.96, 0.092, 192.0, 0.0, 0.0, 0.0, 0.0, 0.0, 0.0, 0.0, 0.0, 0.0, 1.7475192365810618E9, 0.0, 2025-05-17 15:00:36.581
217.0, -430077.1570297667, -702480.817136862, -713741.8048074014, -713699.6941208475, -537720.2078962574, -713617.0820733407, -621120.7355404778, -713958.2591007065, -0.28, 0.96, 0.092, 192.0, 0.0, 0.0, 0.0, 0.0, 0.0, 0.0, 0.0, 0.0, 0.0, 1.7475192365810924E9, 0.0, 2025-05-17 15:00:36.581
218.0, -429920.4265976461, -700826.3410122802, -713617.0820733407, -713574.7925728313, -537552.3015919091, -713492.8063741692, -620684.1612677767, -713833.8045875793, -0.28200000000000003, 0.98, 0.112, 192.0, 247.0, 48.0, 30.0, 160.0, 3.0, 128.0, 0.0, 0.0, 0.0, 1.747519236581128E9, 0.0, 2025-05-17 15:00:36.581
219.0, -430349.2224632767, -701477.1344038409, -713695.0449580008, -713653.0236784249, -537973.5872714028, -713571.0374797628, -620837.2260138066, -713912.1251001508, -0.28200000000000003, 0.98, 0.112, 192.0, 0.0, 0.0, 0.0, 0.0, 0.0, 0.0, 0.0, 0.0, 0.0, 1.7475192365811737E9, 0.0, 2025-05-17 15:00:36.581
220.0, -430897.4660512765, -702640.855627162, -713804.9261337431, -713762.9048541671, -538515.3935569994, -713680.8292485273, -621112.9571334072, -714021.8274619374, -0.28200000000000003, 0.98, 0.112, 192.0, 0.0, 0.0, 0.0, 0.0, 0.0, 0.0, 0.0, 0.0, 0.0, 1.7475192365812044E9, 0.0, 2025-05-17 15:00:36.581
221.0, -430828.62267835415, -701366.6273792539, -713702.0187022709, -713659.7292017614, -538437.7883002507, -713577.7430030993, -620767.5779780839, -713918.4729955761, -0.28200000000000003, 0.98, 0.112, 192.0, 0.0, 0.0, 0.0, 0.0, 0.0, 0.0, 0.0, 0.0, 0.0, 1.7475192365812347E9, 0.0, 2025-05-17 15:00:36.581
222.0, -430518.2016513588, -699113.1245032698, -713516.5886302696, -713474.4779437159, -538114.4032614712, -713392.7599659873, -620174.2732732622, -713733.4005514862, -0.28200000000000003, 0.98, 0.112, 192.0, 0.0, 0.0, 0.0, 0.0, 0.0, 0.0, 0.0, 0.0, 0.0, 1.7475192365812652E9, 0.0, 2025-05-17 15:00:36.581
223.0, -430747.26232853683, -698971.5038504009, -713517.8403279592, -713475.4614204719, -538333.0033222442, -713394.1010706546, -620125.0994354605, -713735.0992840647, -0.28200000000000003, 0.98, 0.112, 192.0, 0.0, 0.0, 0.0, 0.0, 0.0, 0.0, 0.0, 0.0, 0.0, 1.7475192365813212E9, 0.0, 2025-05-17 15:00:36.581
224.0, -431323.57970757247, -700234.1985981702, -713632.5494805038, -713590.0811660388, -538905.0291663443, -713508.6314092436, -620430.4242647201, -713849.3614017203, -0.28200000000000003, 0.98, 0.112, 192.0, 0.0, 0.0, 0.0, 0.0, 0.0, 0.0, 0.0, 0.0, 0.0, 1.7475192365813608E9, 0.0, 2025-05-17 15:00:36.581
225.0, -431332.43099837675, -699270.3913772573, -713556.3747354001, -713514.2640488463, -538907.8007826568, -713432.4566641399, -620163.9914708128, -713773.6336915056, -0.28200000000000003, 0.98, 0.112, 192.0, 0.0, 0.0, 0.0, 0.0, 0.0, 0.0, 0.0, 0.0, 0.0, 1.747519236581392E9, 0.0, 2025-05-17 15:00:36.581
226.0, -431025.85447142774, -697052.2936644905, -713387.3955473179, -713345.5530816977, -538590.6742323249, -713264.1927318804, -619577.2134753721, -713604.922724357, -0.28200000000000003, 0.98, 0.112, 192.0, 0.0, 0.0, 0.0, 0.0, 0.0, 0.0, 0.0, 0.0, 0.0, 1.747519236581423E9, 0.0, 2025-05-17 15:00:36.581
227.0, -431141.1000658393, -696465.2474481163, -713340.367476984, -713298.2567904302, -538695.1909893979, -713217.7011034132, -619412.5258222254, -713558.0734679787, -0.28200000000000003, 0.98, 0.112, 192.0, 0.0, 0.0, 0.0, 0.0, 0.0, 0.0, 0.0, 0.0, 0.0, 1.7475192365814571E9, 0.0, 2025-05-17 15:00:36.581
228.0, -431845.2694231593, -698214.9420040777, -713495.9356183929, -713453.4673039279, -539395.2476257381, -713372.5539889997, -619844.7191530132, -713713.1945744986, -0.272, 0.99, 0.136, 192.0, 247.0, 128.0, 30.0, 240.0, 4.0, 64.0, 0.0, 0.0, 0.0, 1.747519236581504E9, 0.0, 2025-05-17 15:00:36.581
229.0, -432065.0317746439, -698082.1726420132, -713489.3195020342, -713446.7617805912, -539607.410384108, -713365.7590586853, -619789.5550476975, -713706.6678651175, -0.272, 0.99, 0.136, 192.0, 0.0, 0.0, 0.0, 0.0, 0.0, 0.0, 0.0, 0.0, 0.0, 1.7475192365815525E9, 0.0, 2025-05-17 15:00:36.581
230.0, -431692.7411189963, -695613.19894948, -713294.5016973617, -713251.854568941, -539225.0167399665, -713171.4776958798, -619136.5264816912, -713512.0288744008, -0.272, 0.99, 0.136, 192.0, 0.0, 0.0, 0.0, 0.0, 0.0, 0.0, 0.0, 0.0, 0.0, 1.7475192365815835E9, 0.0, 2025-05-17 15:00:36.581
231.0, -431593.76759454823, -694195.2936882131, -713190.4319751778, -713148.0530676906, -539118.8012503149, -713067.5867876514, -618758.3349655074, -713408.1379661725, -0.272, 0.99, 0.136, 192.0, 0.0, 0.0, 0.0, 0.0, 0.0, 0.0, 0.0, 0.0, 0.0, 1.7475192365816145E9, 0.0, 2025-05-17 15:00:36.581
232.0, -432253.7699048245, -695765.0119978205, -713327.4034652, -713284.9351507348, -539773.7073628554, -713204.4688706958, -619145.645993429, -713544.9306422389, -0.272, 0.99, 0.136, 192.0, 0.0, 0.0, 0.0, 0.0, 0.0, 0.0, 0.0, 0.0, 0.0, 1.7475192365816448E9, 0.0, 2025-05-17 15:00:36.581
233.0, -432513.9442102843, -695787.0061143645, -713339.4734072058, -713297.0050927408, -540024.1363077327, -713216.8070336351, -619130.0891792881, -713557.3582121561, -0.272, 0.99, 0.136, 192.0, 0.0, 0.0, 0.0, 0.0, 0.0, 0.0, 0.0, 0.0, 0.0, 1.7475192365816753E9, 0.0, 2025-05-17 15:00:36.581
234.0, -432272.6347771448, -693826.758125634, -713185.5145913976, -713142.867462977, -539769.6840488535, -713062.9376248048, -618607.7736148565, -713403.3099893702, -0.272, 0.99, 0.136, 192.0, 0.0, 0.0, 0.0, 0.0, 0.0, 0.0, 0.0, 0.0, 0.0, 1.7475192365817187E9, 0.0, 2025-05-17 15:00:36.581
235.0, -432154.3493454873, -692338.2213518884, -713069.1961132522, -713027.1748336762, -539640.1333379905, -712947.244995504, -618209.6443426185, -713287.2597321582, -0.272, 0.99, 0.136, 192.0, 0.0, 0.0, 0.0, 0.0, 0.0, 0.0, 0.0, 0.0, 0.0, 1.7475192365817502E9, 0.0, 2025-05-17 15:00:36.581
236.0, -432736.65699203697, -693596.0881228553, -713177.4679633938, -713135.1784628843, -540216.6295309818, -713054.6227758673, -618519.8865556582, -713395.1739543885, -0.272, 0.99, 0.136, 192.0, 0.0, 0.0, 0.0, 0.0, 0.0, 0.0, 0.0, 0.0, 0.0, 1.7475192365817811E9, 0.0, 2025-05-17 15:00:36.581
237.0, -433091.9603218985, -693979.5546507305, -713214.9294871008, -713173.0870214805, -540563.7968258616, -713092.2631135301, -618599.1905449856, -713432.903699029, -0.272, 0.99, 0.136, 192.0, 0.0, 0.0, 0.0, 0.0, 0.0, 0.0, 0.0, 0.0, 0.0, 1.7475192365818117E9, 0.0, 2025-05-17 15:00:36.581
238.0, -432908.31838945375, -692252.39065318, -713082.1601250363, -713040.4070663938, -540371.0353816791, -712960.4772282216, -618135.3471440491, -713300.2237439423, -0.256, 0.99, 0.162, 192.0, 248.0, 0.0, 30.0, 240.0, 5.0, 16.0, 0.0, 0.0, 0.0, 1.7475192365818424E9, 0.0, 2025-05-17 15:00:36.581
239.0, -432687.84078214655, -690369.926735154, -712933.5657278975, -712891.6338552992, -540139.8289370333, -712812.3298659718, -617635.0256961616, -713151.7187537812, -0.256, 0.99, 0.162, 192.0, 0.0, 0.0, 0.0, 0.0, 0.0, 0.0, 0.0, 0.0, 0.0, 1.7475192365818748E9, 0.0, 2025-05-17 15:00:36.581
240.0, -433116.01079893246, -691031.7171849868, -712999.9057054408, -712957.9738328427, -540563.5286049282, -712878.4910295595, -617791.3985003708, -713218.1481383024, -0.256, 0.99, 0.162, 192.0, 0.0, 0.0, 0.0, 0.0, 0.0, 0.0, 0.0, 0.0, 0.0, 1.7475192365819056E9, 0.0, 2025-05-17 15:00:36.581
241.0, -433458.35011700995, -691369.2285262619, -713046.1291129744, -713004.286647354, -540899.4306206024, -712924.267402204, -617859.794838404, -713264.5503597916, -0.256, 0.99, 0.162, 192.0, 0.0, 0.0, 0.0, 0.0, 0.0, 0.0, 0.0, 0.0, 0.0, 1.7475192370566792E9, 0.0, 2025-05-17 15:00:37.056
242.0, -433143.9057760127, -689129.5837318401, -712869.2821108439, -712827.5290522014, -540573.3633724884, -712748.4038768297, -617266.4007266046, -713088.2397995281, -0.256, 0.99, 0.162, 192.0, 0.0, 0.0, 0.0, 0.0, 0.0, 0.0, 0.0, 0.0, 0.0, 1.7475192370567768E9, 0.0, 2025-05-17 15:00:37.056
243.0, -432666.4725144473, -686244.6887784826, -712636.734561531, -712594.8026889327, -540084.2177968285, -712516.4821763614, -616507.514298858, -712856.1392851042, -0.256, 0.99, 0.162, 192.0, 0.0, 0.0, 0.0, 0.0, 0.0, 0.0, 0.0, 0.0, 0.0, 1.747519237056884E9, 0.0, 2025-05-17 15:00:37.056
244.0, -433032.23646071396, -686653.8151089925, -712679.1134690183, -712637.18159642, -540444.1702895368, -712558.9504908265, -616597.6365325018, -712898.4287856137, -0.256, 0.99, 0.162, 192.0, 0.0, 0.0, 0.0, 0.0, 0.0, 0.0, 0.0, 0.0, 0.0, 1.747519237056935E9, 0.0, 2025-05-17 15:00:37.056
245.0, -433700.19599201635, -688262.9618958189, -712822.8798893547, -712781.2162376901, -541105.4242975026, -712702.5380972073, -616993.3518163386, -713041.8375780389, -0.256, 0.99, 0.162, 192.0, 0.0, 0.0, 0.0, 0.0, 0.0, 0.0, 0.0, 0.0, 0.0, 1.7475192370569832E9, 0.0, 2025-05-17 15:00:37.056
246.0, -433755.1812833764, -687471.0842932564, -712763.6030630593, -712721.6711904611, -541149.4125305907, -712643.0824569563, -616770.7284415637, -712982.4713447656, -0.256, 0.99, 0.162, 192.0, 0.0, 0.0, 0.0, 0.0, 0.0, 0.0, 0.0, 0.0, 0.0, 1.7475192370570319E9, 0.0, 2025-05-17 15:00:37.057
247.0, -433555.6249088794, -685678.384980963, -712625.9163172146, -712583.6268167051, -540938.3226559547, -712505.1274901781, -616291.5964474197, -712844.6951919431, -0.256, 0.99, 0.162, 192.0, 0.0, 0.0, 0.0, 0.0, 0.0, 0.0, 0.0, 0.0, 0.0, 1.7475192370570798E9, 0.0, 2025-05-17 15:00:37.057
248.0, -433858.44634275994, -685845.8442504221, -712654.3477361618, -712611.8794216966, -541233.2762757869, -712533.4695021474, -616319.3126105443, -712872.8583899568, -0.254, 0.9500000000000001, 0.168, 192.0, 248.0, 16.0, 29.0, 176.0, 5.0, 64.0, 0.0, 0.0, 0.0, 1.7475192370571616E9, 0.0, 2025-05-17 15:00:37.057
249.0, -434558.7712000336, -687590.0849807364, -712798.5611913874, -712756.1822839001, -541928.7731562583, -712677.235922484, -616750.9694994652, -713016.803624249, -0.254, 0.9500000000000001, 0.168, 192.0, 0.0, 0.0, 0.0, 0.0, 0.0, 0.0, 0.0, 0.0, 0.0, 1.7475192370572145E9, 0.0, 2025-05-17 15:00:37.057
250.0, -434701.0177017472, -687156.9081731925, -712769.7721445289, -712727.7508649529, -542062.7942160123, -712648.8045035368, -616619.2730211345, -712988.282798324, -0.254, 0.9500000000000001, 0.168, 192.0, 0.0, 0.0, 0.0, 0.0, 0.0, 0.0, 0.0, 0.0, 0.0, 1.7475192370572639E9, 0.0, 2025-05-17 15:00:37.057
251.0, -434425.91243099124, -684728.1676206789, -712603.3857588036, -712561.4538862054, -541777.6753637404, -712482.6863387449, -616065.7544214433, -712822.4328544657, -0.254, 0.9500000000000001, 0.168, 192.0, 0.0, 0.0, 0.0, 0.0, 0.0, 0.0, 0.0, 0.0, 0.0, 1.7475192370573127E9, 0.0, 2025-05-17 15:00:37.057
252.0, -434274.63582451775, -681948.0576453278, -712483.4910015453, -712441.6485359251, -541633.8195364261, -712363.149209398, -615654.9293583548, -712702.9851320965, -0.254, 0.9500000000000001, 0.168, 192.0, 0.0, 0.0, 0.0, 0.0, 0.0, 0.0, 0.0, 0.0, 0.0, 1.7475192370573618E9, 0.0, 2025-05-17 15:00:37.057
253.0, -434614.47174721624, -682640.5146885532, -712532.3072114357, -712490.1071179041, -541999.0470408257, -712412.4124541775, -615754.5287316476, -712752.0695629204, -0.254, 0.9500000000000001, 0.168, 192.0, 0.0, 0.0, 0.0, 0.0, 0.0, 0.0, 0.0, 0.0, 0.0, 1.7475192370574112E9, 0.0, 2025-05-17 15:00:37.057
254.0, -434455.41673367226, -681822.6196554446, -712421.174338004, -712378.7954305167, -541862.5225856927, -712301.3689877235, -615350.6774128291, -712641.0260964663, -0.254, 0.9500000000000001, 0.168, 192.0, 0.0, 0.0, 0.0, 0.0, 0.0, 0.0, 0.0, 0.0, 0.0, 1.7475192370574603E9, 0.0, 2025-05-17 15:00:37.057
255.0, -433921.1206342126, -679527.9895696628, -712177.7191373968, -712134.9826019983, -541349.4159399767, -712058.8972638723, -614569.6180545829, -712397.660302837, -0.254, 0.9500000000000001, 0.168, 192.0, 0.0, 0.0, 0.0, 0.0, 0.0, 0.0, 0.0, 0.0, 0.0, 1.7475192370575092E9, 0.0, 2025-05-17 15:00:37.057
0.0, -433728.1803760744, -678552.2018137219, -712045.1285892879, -712002.6602748228, -541177.5757286043, -711926.5749366969, -614132.2391190814, -712264.8015337946, -0.254, 0.9500000000000001, 0.168, 192.0, 0.0, 0.0, 0.0, 0.0, 0.0, 0.0, 0.0, 0.0, 0.0, 1.747519237057558E9, 0.0, 2025-05-17 15:00:37.057
1.0, -434147.94613694504, -679973.7727610795, -712115.2236598997, -712072.8447524124, -541621.5707804646, -711996.580600331, -614312.3047724133, -712335.0754183622, -0.254, 0.9500000000000001, 0.168, 192.0, 0.0, 0.0, 0.0, 0.0, 0.0, 0.0, 0.0, 0.0, 0.0, 1.7475192370576067E9, 0.0, 2025-05-17 15:00:37.057
2.0, -433971.7249836594, -679073.8915293087, -711993.2725421516, -711951.1618555977, -541466.2708599891, -711875.4341453832, -613891.376720831, -712213.8395564365, -0.246, 0.928, 0.17, 192.0, 248.0, 80.0, 29.0, 0.0, 5.0, 80.0, 0.0, 0.0, 0.0, 1.7475192370576751E9, 0.0, 2025-05-17 15:00:37.057
3.0, -433276.58573109936, -676134.3689125024, -711701.448166543, -711659.4268869672, -540791.2481774387, -711584.6826535085, -612947.9542908615, -711922.3728087393, -0.246, 0.928, 0.17, 192.0, 0.0, 0.0, 0.0, 0.0, 0.0, 0.0, 0.0, 0.0, 0.0, 1.747519237057727E9, 0.0, 2025-05-17 15:00:37.057
4.0, -432730.130282656, -673774.561139889, -711461.6586520266, -711419.1903375614, -540265.4457408722, -711345.6978017924, -612154.9143975872, -711682.7621081785, -0.246, 0.928, 0.17, 192.0, 0.0, 0.0, 0.0, 0.0, 0.0, 0.0, 0.0, 0.0, 0.0, 1.7475192370577843E9, 0.0, 2025-05-17 15:00:37.057
5.0, -433086.7747171849, -674955.7167238852, -711514.7663968523, -711472.2086754094, -540649.4487106143, -711398.4479187069, -612272.7527943555, -711736.0486669599, -0.246, 0.928, 0.17, 192.0, 0.0, 0.0, 0.0, 0.0, 0.0, 0.0, 0.0, 0.0, 0.0, 1.7475192370578375E9, 0.0, 2025-05-17 15:00:37.057
6.0, -433272.1153822083, -675477.8534743611, -711507.9714665379, -711465.1455241615, -540860.0021433834, -711391.384767459, -612217.8569099733, -711728.8961087342, -0.246, 0.928, 0.17, 192.0, 0.0, 0.0, 0.0, 0.0, 0.0, 0.0, 0.0, 0.0, 0.0, 1.7475192370578904E9, 0.0, 2025-05-17 15:00:37.057
7.0, -433001.7486812769, -674205.4133660095, -711346.5918715707, -711303.7659291943, -540612.7918497076, -711230.8098352922, -611701.1739851445, -711567.4271067891, -0.246, 0.928, 0.17, 192.0, 0.0, 0.0, 0.0, 0.0, 0.0, 0.0, 0.0, 0.0, 0.0, 1.74751923705797E9, 0.0, 2025-05-17 15:00:37.057
8.0, -432943.45533173747, -673750.1530349437, -711261.6552426404, -711218.7398932863, -540577.7443144018, -711146.2308342733, -611396.5644117075, -711482.4904778589, -0.246, 0.928, 0.17, 192.0, 0.0, 0.0, 0.0, 0.0, 0.0, 0.0, 0.0, 0.0, 0.0, 1.7475192370580204E9, 0.0, 2025-05-17 15:00:37.058
9.0, -433630.63736327144, -676206.1627156929, -711423.4818724969, -711380.6559301205, -541288.8874159917, -711307.6998362184, -611843.8675217471, -711644.7641426044, -0.246, 0.928, 0.17, 192.0, 0.0, 0.0, 0.0, 0.0, 0.0, 0.0, 0.0, 0.0, 0.0, 1.74751923705807E9, 0.0, 2025-05-17 15:00:37.058
10.0, -434067.65867086157, -677702.7461174424, -711511.9947805399, -711469.1688381635, -541749.6015727045, -711395.7657093724, -612041.8145706432, -711733.2770506474, -0.246, 0.928, 0.17, 192.0, 0.0, 0.0, 0.0, 0.0, 0.0, 0.0, 0.0, 0.0, 0.0, 1.74751923705812E9, 0.0, 2025-05-17 15:00:37.058
11.0, -433799.88477228704, -676434.2399161148, -711354.9961274858, -711311.7231502204, -541504.0006046296, -711238.9458702739, -611528.5291109716, -711575.7419557264, -0.246, 0.928, 0.17, 192.0, 0.0, 0.0, 0.0, 0.0, 0.0, 0.0, 0.0, 0.0, 0.0, 1.7475192370581703E9, 0.0, 2025-05-17 15:00:37.058
12.0, -433404.2588954281, -674653.5211388494, -711161.7876484141, -711118.6040781265, -541128.3124838248, -711046.6314609804, -610885.1564985701, -711382.8016975882, -0.25, 0.924, 0.17400000000000002, 192.0, 248.0, 48.0, 28.0, 224.0, 5.0, 112.0, 0.0, 0.0, 0.0, 1.7475192370582192E9, 0.0, 2025-05-17 15:00:37.058
13.0, -433465.2344543022, -674657.9914877405, -711113.5078803906, -711070.0560891696, -541213.1597057772, -710998.4410999347, -610702.5874498591, -711334.5219295648, -0.25, 0.924, 0.17400000000000002, 192.0, 0.0, 0.0, 0.0, 0.0, 0.0, 0.0, 0.0, 0.0, 0.0, 1.7475192370582724E9, 0.0, 2025-05-17 15:00:37.058
14.0, -433564.1185717724, -674831.262210758, -711081.3213683751, -711037.5119492427, -541339.7599863721, -710966.1651809413, -610562.129087702, -711301.9777896379, -0.25, 0.924, 0.17400000000000002, 192.0, 0.0, 0.0, 0.0, 0.0, 0.0, 0.0, 0.0, 0.0, 0.0, 1.747519237058323E9, 0.0, 2025-05-17 15:00:37.058
15.0, -432877.9200169945, -671926.8765362354, -710792.805050946, -710748.9956318135, -540675.2873272047, -710679.1687821351, -609575.6124944226, -711007.5606116725, -0.25, 0.924, 0.17400000000000002, 192.0, 0.0, 0.0, 0.0, 0.0, 0.0, 0.0, 0.0, 0.0, 0.0, 1.7475192370583725E9, 0.0, 2025-05-17 15:00:37.058
16.0, -431936.464540537, -668015.0530356233, -710411.8419184497, -710368.0324993173, -539753.1437579566, -710299.636161284, -608114.4342558902, -710627.4021419766, -0.25, 0.924, 0.17400000000000002, 192.0, 0.0, 0.0, 0.0, 0.0, 0.0, 0.0, 0.0, 0.0, 0.0, 1.747519237058428E9, 0.0, 2025-05-17 15:00:37.058
17.0, -431679.7771072122, -666770.9549392408, -710268.9695678913, -710225.0707417811, -539520.1491737544, -710156.7638107258, -607771.1114610566, -710488.2848844868, -0.25, 0.924, 0.17400000000000002, 192.0, 0.0, 0.0, 0.0, 0.0, 0.0, 0.0, 0.0, 0.0, 0.0, 1.7475192370584996E9, 0.0, 2025-05-17 15:00:37.058
18.0, -431969.0980874417, -667682.2802641726, -710310.2755916448, -710265.8403236676, -539836.3816543081, -710198.2486484348, -608168.7042914277, -710519.9349546356, -0.25, 0.924, 0.17400000000000002, 192.0, 0.0, 0.0, 0.0, 0.0, 0.0, 0.0, 0.0, 0.0, 0.0, 1.7475192370585508E9, 0.0, 2025-05-17 15:00:37.058
19.0, -431517.0564075776, -665695.4784030293, -710090.066205271, -710045.5415303161, -539407.2281607662, -709978.6651109058, -607819.1230081466, -710305.2688008868, -0.25, 0.924, 0.17400000000000002, 192.0, 0.0, 0.0, 0.0, 0.0, 0.0, 0.0, 0.0, 0.0, 0.0, 1.7475192370585992E9, 0.0, 2025-05-17 15:00:37.058
20.0, -430627.0099433673, -661980.9761024686, -709728.4149799842, -709683.0856422288, -538538.3711502994, -709617.7291414415, -607029.3017660739, -709949.3396221804, -0.25, 0.924, 0.17400000000000002, 192.0, 0.0, 0.0, 0.0, 0.0, 0.0, 0.0, 0.0, 0.0, 0.0, 1.7475192370586486E9, 0.0, 2025-05-17 15:00:37.058
21.0, -430212.42978721025, -660104.0554170675, -709522.957744951, -709476.8237443953, -538142.8346804184, -709412.6295343196, -606713.6057273872, -709743.7929801694, -0.25, 0.924, 0.17400000000000002, 192.0, 0.0, 0.0, 0.0, 0.0, 0.0, 0.0, 0.0, 0.0, 0.0, 1.7475192370586977E9, 0.0, 2025-05-17 15:00:37.058
22.0, -430639.52692026226, -661529.0238295823, -709607.1791180586, -709561.0451175029, -538593.7140695709, -709497.0297213829, -607244.6831756453, -709826.3156206985, -0.258, 0.9380000000000001, 0.196, 192.0, 247.0, 240.0, 29.0, 80.0, 6.0, 32.0, 0.0, 0.0, 0.0, 1.7475192370587692E9, 0.0, 2025-05-17 15:00:37.058
23.0, -430578.8195823216, -661072.3329868714, -709524.477663574, -709478.0754420848, -538560.0076389322, -709414.5964878317, -607289.0290366446, -709742.8989103913, -0.258, 0.9380000000000001, 0.196, 192.0, 0.0, 0.0, 0.0, 0.0, 0.0, 0.0, 0.0, 0.0, 0.0, 1.7475192370588217E9, 0.0, 2025-05-17 15:00:37.058
24.0, -429959.9444818431, -658418.1080362926, -709253.6639277535, -709206.2782295082, -537963.484282909, -709144.3191938781, -606770.1109373702, -709473.5156862158, -0.258, 0.9380000000000001, 0.196, 192.0, 0.0, 0.0, 0.0, 0.0, 0.0, 0.0, 0.0, 0.0, 0.0, 1.7475192370588715E9, 0.0, 2025-05-17 15:00:37.058
25.0, -429436.19840576634, -656116.861834152, -709026.0337622206, -708977.5751802415, -537462.1793582654, -708917.9407260348, -606345.5171996972, -709245.4384857939, -0.258, 0.9380000000000001, 0.196, 192.0, 0.0, 0.0, 0.0, 0.0, 0.0, 0.0, 0.0, 0.0, 0.0, 1.747519237058922E9, 0.0, 2025-05-17 15:00:37.058
