%OpenBCI Raw EXG Data
%Number of channels = 8
%Sample Rate = 250 Hz
%Board = OpenBCI_GUI$BoardCytonSerial
Sample Index, EXG Channel 0, EXG Channel 1, EXG Channel 2, EXG Channel 3, EXG Channel 4, EXG Channel 5, EXG Channel 6, EXG Channel 7, Accel Channel 0, Accel Channel 1, Accel Channel 2, Not Used, Digital Channel 0 (D11), Digital Channel 1 (D12), Digital Channel 2 (D13), Digital Channel 3 (D17), Not Used, Digital Channel 4 (D18), Analog Channel 0, Analog Channel 1, Analog Channel 2, Timestamp, Marker Channel, Timestamp (Formatted)
65.0, 32308.194912456864, 21292.919968714712, -187500.02235174447, -187500.02235174447, 187500.0, -45084.78731927721, -187500.02235174447, -187500.02235174447, 0.0, 0.0, 0.0, 192.0, 0.0, 0.0, 0.0, 0.0, 0.0, 0.0, 0.0, 0.0, 0.0, 1.747502752980102E9, 0.0, 2025-05-17 10:25:52.980
252.0, -58044.44051318652, -49185.55011577012, -59472.649928647275, 106086.96712100114, -58011.87402151514, -57594.611656023466, -57750.515073599236, -57365.707441056664, 0.0, 0.0, 0.0, 192.0, 0.0, 0.0, 0.0, 0.0, 0.0, 0.0, 0.0, 0.0, 0.0, 1.7475027529801276E9, 0.0, 2025-05-17 10:25:52.980
142.0, -58107.07010115029, -49171.021481874166, -59480.31657699544, 106039.13438786678, -58582.1787812923, -57599.17141189235, -57740.166215916426, -57345.27794662451, 0.0, 0.0, 0.0, 192.0, 0.0, 0.0, 0.0, 0.0, 0.0, 0.0, 0.0, 0.0, 0.0, 1.7475027529801424E9, 0.0, 2025-05-17 10:25:52.980
186.0, -58221.980419395026, -49034.98876511917, -59691.71937605374, 106019.55425972394, -58106.488955794455, -57628.429845384344, -57763.81436155014, -57377.28564468452, 0.0, 0.0, 0.0, 192.0, 0.0, 0.0, 0.0, 0.0, 0.0, 0.0, 0.0, 0.0, 0.0, 1.7475027529801545E9, 0.0, 2025-05-17 10:25:52.980
187.0, -58365.38921182027, -49160.69497593582, -59135.49621528343, 106033.41234128622, -58017.90899251807, -57595.505725801675, -57715.35577957104, -57368.70257481368, 0.0, 0.0, 0.0, 192.0, 0.0, 0.0, 0.0, 0.0, 0.0, 0.0, 0.0, 0.0, 0.0, 1.7475027529801667E9, 0.0, 2025-05-17 10:25:52.980
188.0, -58077.34228102473, -49111.96817302325, -59527.43405430723, 106025.6786377047, -58033.33169619223, -57595.72924324623, -57743.720143284816, -57360.36537413185, -0.024, 0.96, 0.132, 192.0, 255.0, 64.0, 30.0, 0.0, 4.0, 32.0, 0.0, 0.0, 0.0, 1.7475027529801784E9, 0.0, 2025-05-17 10:25:52.980
189.0, -57950.18320681849, -48983.75856682761, -60046.70978149293, 106011.12765206429, -58090.820382931284, -57646.11007524849, -57797.900771844485, -57379.699633085685, -0.024, 0.96, 0.132, 192.0, 0.0, 0.0, 0.0, 0.0, 0.0, 0.0, 0.0, 0.0, 0.0, 1.7475027529801908E9, 0.0, 2025-05-17 10:25:52.980
190.0, -58164.648194867164, -49001.17057575829, -59799.43243258387, 106016.96145736713, -58068.870969876174, -57632.83313904204, -57778.41005067946, -57380.50429588608, -0.024, 0.96, 0.132, 192.0, 0.0, 0.0, 0.0, 0.0, 0.0, 0.0, 0.0, 0.0, 0.0, 1.7475027529802077E9, 0.0, 2025-05-17 10:25:52.980
227.0, -57978.27934959881, -48936.752848238095, -59959.76149556178, 106005.60677118383, -58682.0016720297, -57590.409528065866, -57758.49464636978, -57358.2866618975, -0.024, 0.96, 0.132, 192.0, 0.0, 0.0, 0.0, 0.0, 0.0, 0.0, 0.0, 0.0, 0.0, 1.7475027529802194E9, 0.0, 2025-05-17 10:25:52.980
229.0, -57732.52191931271, -48895.379769251325, -60258.60431892924, 105821.85308001675, -57854.29422310522, -57715.08755863757, -57868.3087668787, -57460.36707882489, -0.024, 0.96, 0.132, 192.0, 0.0, 0.0, 0.0, 0.0, 0.0, 0.0, 0.0, 0.0, 0.0, 1.7475027529802306E9, 0.0, 2025-05-17 10:25:52.980
126.0, 35193.46984547017, 21504.456878239736, -187500.02235174447, -187500.02235174447, 187500.0, -45691.16779460524, -187500.02235174447, -187500.02235174447, -0.024, 0.96, 0.132, 192.0, 0.0, 0.0, 0.0, 0.0, 0.0, 0.0, 0.0, 0.0, 0.0, 1.7475027529802418E9, 0.0, 2025-05-17 10:25:52.980
127.0, 36204.77452335054, 21454.500729382125, -187500.02235174447, -187500.02235174447, 187500.0, -45669.24073329458, -187500.02235174447, -187500.02235174447, 0.07200000000000001, 0.906, -0.26, 192.0, 2.0, 64.0, 28.0, 80.0, 247.0, 224.0, 0.0, 0.0, 0.0, 1.747502752980253E9, 0.0, 2025-05-17 10:25:52.980
43.0, -59073.58188314222, -50172.37963347192, -59533.98311543264, 127028.33885292278, -55279.68618627622, -55023.35638086276, -54986.140726344674, -54648.070591458156, 0.07200000000000001, 0.906, -0.26, 192.0, 0.0, 0.0, 0.0, 0.0, 0.0, 0.0, 0.0, 0.0, 0.0, 1.747502752980265E9, 0.0, 2025-05-17 10:25:52.980
83.0, -58548.9193855428, -49971.54920954099, -60320.89863072618, 128343.18022050623, -54820.44724469748, -54647.26592865776, -54812.55707890476, -54407.87874554143, 0.07200000000000001, 0.906, -0.26, 192.0, 0.0, 0.0, 0.0, 0.0, 0.0, 0.0, 0.0, 0.0, 0.0, 1.7475027529802763E9, 0.0, 2025-05-17 10:25:52.980
145.0, 36568.884440527494, 21615.723862138257, -187500.02235174447, -187500.02235174447, 187500.0, -45827.401677060334, -187500.02235174447, -187500.02235174447, 0.07200000000000001, 0.906, -0.26, 192.0, 0.0, 0.0, 0.0, 0.0, 0.0, 0.0, 0.0, 0.0, 0.0, 1.7475027529802876E9, 0.0, 2025-05-17 10:25:52.980
168.0, 31316.023327830237, 20842.532317940273, -187500.02235174447, -187500.02235174447, 187500.0, -45204.503262579834, -187500.02235174447, -187500.02235174447, 0.076, 0.894, -0.26, 192.0, 2.0, 96.0, 27.0, 240.0, 247.0, 224.0, 0.0, 0.0, 0.0, 1.7475027529802988E9, 0.0, 2025-05-17 10:25:52.980
178.0, 36407.34838334899, 21615.880324349444, -187500.02235174447, -187500.02235174447, 187500.0, -45940.5462074931, -187500.02235174447, -187500.02235174447, 0.078, 0.896, -0.258, 192.0, 2.0, 112.0, 28.0, 0.0, 247.0, 240.0, 0.0, 0.0, 0.0, 1.74750275298031E9, 0.0, 2025-05-17 10:25:52.980
179.0, 34801.308489001814, 21145.33140007632, -187500.02235174447, -187500.02235174447, 187500.0, -45576.860973460796, -187500.02235174447, -187500.02235174447, 0.078, 0.896, -0.258, 192.0, 0.0, 0.0, 0.0, 0.0, 0.0, 0.0, 0.0, 0.0, 0.0, 1.7475027529803212E9, 0.0, 2025-05-17 10:25:52.980
197.0, 31062.688656173785, 20749.951392406394, -187500.02235174447, -187500.02235174447, 187500.0, -45232.30883268223, -187500.02235174447, -187500.02235174447, 0.078, 0.896, -0.258, 192.0, 0.0, 0.0, 0.0, 0.0, 0.0, 0.0, 0.0, 0.0, 0.0, 1.7475027529803324E9, 0.0, 2025-05-17 10:25:52.980
205.0, 31283.412132669942, 20748.744398205807, -187500.02235174447, -187500.02235174447, 187500.0, -45203.16215791251, -187500.02235174447, -187500.02235174447, 0.078, 0.896, -0.258, 192.0, 0.0, 0.0, 0.0, 0.0, 0.0, 0.0, 0.0, 0.0, 0.0, 1.7475027529803436E9, 0.0, 2025-05-17 10:25:52.980
206.0, 31793.52364462896, 21012.629093245163, -187500.02235174447, -187500.02235174447, 187500.0, -45364.809973813295, -187500.02235174447, -187500.02235174447, 0.078, 0.896, -0.258, 192.0, 0.0, 0.0, 0.0, 0.0, 0.0, 0.0, 0.0, 0.0, 0.0, 1.7475027529803548E9, 0.0, 2025-05-17 10:25:52.980
207.0, 35657.134432451065, 21601.083469520032, -187500.02235174447, -187500.02235174447, 187500.0, -45880.107090485944, -187500.02235174447, -187500.02235174447, 0.078, 0.896, -0.258, 192.0, 0.0, 0.0, 0.0, 0.0, 0.0, 0.0, 0.0, 0.0, 0.0, 1.747502752980369E9, 0.0, 2025-05-17 10:25:52.980
209.0, 31574.49890071141, 20745.369284793054, -187500.02235174447, -187500.02235174447, 187500.0, -45233.71699258292, -187500.02235174447, -187500.02235174447, 0.078, 0.896, -0.258, 192.0, 0.0, 0.0, 0.0, 0.0, 0.0, 0.0, 0.0, 0.0, 0.0, 1.7475027529804015E9, 0.0, 2025-05-17 10:25:52.980
210.0, 31328.42854600293, 20935.85085104118, -187500.02235174447, -187500.02235174447, 187500.0, -45299.945211403996, -187500.02235174447, -187500.02235174447, 0.078, 0.896, -0.258, 192.0, 0.0, 0.0, 0.0, 0.0, 0.0, 0.0, 0.0, 0.0, 0.0, 1.7475027529804192E9, 0.0, 2025-05-17 10:25:52.980
211.0, 34921.44911544909, 21511.564732976527, -187500.02235174447, -187500.02235174447, 187500.0, -45828.27339509409, -187500.02235174447, -187500.02235174447, 0.078, 0.896, -0.258, 192.0, 0.0, 0.0, 0.0, 0.0, 0.0, 0.0, 0.0, 0.0, 0.0, 1.7475027529804373E9, 0.0, 2025-05-17 10:25:52.980
212.0, 36087.09258879335, 21435.09941519492, -187500.02235174447, -187500.02235174447, 187500.0, -45866.53958160157, -187500.02235174447, -187500.02235174447, 0.078, 0.896, -0.258, 192.0, 0.0, 0.0, 0.0, 0.0, 0.0, 0.0, 0.0, 0.0, 0.0, 1.7475027529804568E9, 0.0, 2025-05-17 10:25:52.980
245.0, 37550.23778083775, 21725.761500091732, -187500.02235174447, -187500.02235174447, 187500.0, -46158.98980605481, -187500.02235174447, -187500.02235174447, 0.078, 0.896, -0.258, 192.0, 0.0, 0.0, 0.0, 0.0, 0.0, 0.0, 0.0, 0.0, 0.0, 1.7475027529804735E9, 0.0, 2025-05-17 10:25:52.980
0.0, 31485.404847312555, 20963.075275787745, -187500.02235174447, -187500.02235174447, 187500.0, -45206.269050391806, -187500.02235174447, -187500.02235174447, 0.078, 0.896, -0.258, 192.0, 0.0, 0.0, 0.0, 0.0, 0.0, 0.0, 0.0, 0.0, 0.0, 1.7475027529804847E9, 0.0, 2025-05-17 10:25:52.980
134.0, 33065.248497158114, 21160.91056596167, -187500.02235174447, -187500.02235174447, 187500.0, -45511.750341862484, -187500.02235174447, -187500.02235174447, 0.078, 0.896, -0.258, 192.0, 0.0, 0.0, 0.0, 0.0, 0.0, 0.0, 0.0, 0.0, 0.0, 1.747502752980496E9, 0.0, 2025-05-17 10:25:52.980
49.0, -57755.09718121257, -50027.87560556836, -57867.99584245632, 147840.78572282623, -50917.25151744503, -50445.45089548241, -50580.47778373692, -50185.38834874491, 0.078, 0.896, -0.258, 192.0, 0.0, 0.0, 0.0, 0.0, 0.0, 0.0, 0.0, 0.0, 0.0, 1.7475027529805074E9, 0.0, 2025-05-17 10:25:52.980
199.0, -56516.96700059975, -48538.64592774462, -57504.28825667957, 149324.9415546586, -51950.88558803625, -51107.35310403742, -51054.91591154527, -49925.95165085216, 0.078, 0.896, -0.258, 192.0, 0.0, 0.0, 0.0, 0.0, 0.0, 0.0, 0.0, 0.0, 0.0, 1.7475027529805188E9, 0.0, 2025-05-17 10:25:52.980
210.0, -56879.46759217592, -48631.6291846787, -57536.40771346185, 149250.06321073332, -52151.51484626709, -51341.8676068625, -51234.243957310195, -49849.10635341482, 0.078, 0.896, -0.258, 192.0, 0.0, 0.0, 0.0, 0.0, 0.0, 0.0, 0.0, 0.0, 0.0, 1.74750275298053E9, 0.0, 2025-05-17 10:25:52.980
50.0, 37019.7861814244, 21552.602535796468, -187500.02235174447, -187500.02235174447, 187500.0, -46104.54095656168, -187500.02235174447, -187500.02235174447, 0.078, 0.896, -0.258, 192.0, 0.0, 0.0, 0.0, 0.0, 0.0, 0.0, 0.0, 0.0, 0.0, 1.7475027529805417E9, 0.0, 2025-05-17 10:25:52.980
43.0, -56452.638680057375, -48533.996764897915, -56949.205034876475, 148341.9565370031, -55041.103665960276, -54457.49961823221, -53944.996469616475, -50819.30617324188, 0.078, 0.896, -0.258, 192.0, 0.0, 0.0, 0.0, 0.0, 0.0, 0.0, 0.0, 0.0, 0.0, 1.747502752980553E9, 0.0, 2025-05-17 10:25:52.980
44.0, -56445.84374974296, -48572.37471012768, -57752.61613757803, 148365.69408961464, -55067.031689528434, -54486.06514764609, -53968.97989141702, -50808.39852194769, 0.078, 0.896, -0.258, 192.0, 0.0, 0.0, 0.0, 0.0, 0.0, 0.0, 0.0, 0.0, 0.0, 1.747502752980564E9, 0.0, 2025-05-17 10:25:52.980
45.0, -56764.53492218673, -48545.77613422587, -57480.95303546823, 148392.58323819438, -54988.68882521258, -54414.04782701109, -53889.81001255632, -50693.55525893632, 0.078, 0.896, -0.258, 192.0, 0.0, 0.0, 0.0, 0.0, 0.0, 0.0, 0.0, 0.0, 0.0, 1.7475027529805748E9, 0.0, 2025-05-17 10:25:52.980
137.0, 33872.12412025024, 21225.283589992952, -187500.02235174447, -187500.02235174447, 187500.0, -45674.67220719722, -187500.02235174447, -187500.02235174447, 0.078, 0.896, -0.258, 192.0, 0.0, 0.0, 0.0, 0.0, 0.0, 0.0, 0.0, 0.0, 0.0, 1.7475027529805865E9, 0.0, 2025-05-17 10:25:52.980
71.0, -57489.51375359461, -49175.17890634286, -57457.55075902352, 148852.02334547322, -53717.12043489462, -53262.50830441813, -52569.00072920331, -50167.372842713936, 0.028, 0.974, 0.112, 192.0, 0.0, 224.0, 30.0, 112.0, 3.0, 128.0, 0.0, 0.0, 0.0, 1.7475027529805975E9, 0.0, 2025-05-17 10:25:52.980
74.0, -56972.98729097692, -48982.752738327115, -57845.06295264518, 148822.09435964757, -53878.634140328664, -53431.04045761114, -52724.47946363443, -50251.59421582153, 0.028, 0.974, 0.112, 192.0, 0.0, 0.0, 0.0, 0.0, 0.0, 0.0, 0.0, 0.0, 0.0, 1.7475027529806087E9, 0.0, 2025-05-17 10:25:52.980
76.0, -57122.16283347164, -49148.580330441044, -57594.79046997911, 148833.5384528087, -53762.47212439444, -53323.774435970125, -52604.07061625369, -50175.754746884675, 0.028, 0.974, 0.112, 192.0, 0.0, 0.0, 0.0, 0.0, 0.0, 0.0, 0.0, 0.0, 0.0, 1.74750275298062E9, 0.0, 2025-05-17 10:25:52.980
155.0, 37182.88686071478, 21384.025679114544, -187500.02235174447, -187500.02235174447, 187500.0, -46101.92580246041, -187500.02235174447, -187500.02235174447, 0.028, 0.974, 0.112, 192.0, 0.0, 0.0, 0.0, 0.0, 0.0, 0.0, 0.0, 0.0, 0.0, 1.747502752980631E9, 0.0, 2025-05-17 10:25:52.980
157.0, 31015.19119920626, 20716.133203045512, -187500.02235174447, -187500.02235174447, 187500.0, -45180.05045414573, -187500.02235174447, -187500.02235174447, 0.028, 0.974, 0.112, 192.0, 0.0, 0.0, 0.0, 0.0, 0.0, 0.0, 0.0, 0.0, 0.0, 1.7475027529806423E9, 0.0, 2025-05-17 10:25:52.980
99.0, -56760.8468843516, -48870.837553839396, -57905.636180119065, 148873.88335155052, -54203.85202215338, -53831.96369790599, -53002.22224023608, -50293.59314365306, 0.028, 0.974, 0.112, 192.0, 0.0, 0.0, 0.0, 0.0, 0.0, 0.0, 0.0, 0.0, 0.0, 1.7475027529806533E9, 0.0, 2025-05-17 10:25:52.980
100.0, -57129.18128123061, -48933.48949354762, -57789.161239762456, 148893.4858314378, -54091.84743068784, -53726.86579547713, -52888.42950921411, -50239.25605288221, 0.028, 0.974, 0.112, 192.0, 0.0, 0.0, 0.0, 0.0, 0.0, 0.0, 0.0, 0.0, 0.0, 1.747502752980668E9, 0.0, 2025-05-17 10:25:52.980
101.0, -57053.43121927157, -49122.093513261505, -57654.13435150795, 148907.81329963368, -54043.18768300864, -53682.18465831097, -52837.89221500066, -50225.62148876447, 0.028, 0.974, 0.112, 192.0, 0.0, 0.0, 0.0, 0.0, 0.0, 0.0, 0.0, 0.0, 0.0, 1.7475027529806793E9, 0.0, 2025-05-17 10:25:52.980
102.0, -56657.55947322363, -49087.962399478245, -57876.80242977172, 148905.77929088823, -54151.81716106143, -53791.462336952965, -52945.068829663855, -50293.682550630874, 0.07200000000000001, 0.9380000000000001, 0.17, 192.0, 2.0, 64.0, 29.0, 80.0, 5.0, 80.0, 0.0, 0.0, 0.0, 1.7475027529806905E9, 0.0, 2025-05-17 10:25:52.980
112.0, -57174.15299107468, -49064.04603291107, -57877.5623890832, 148988.95013200643, -54047.88154934425, -53724.18358614249, -52819.1167496582, -50269.90029453043, 0.054, 0.922, 0.194, 192.0, 1.0, 176.0, 28.0, 208.0, 6.0, 16.0, 0.0, 0.0, 0.0, 1.7475027529807012E9, 0.0, 2025-05-17 10:25:52.980
114.0, -57038.38849525315, -49280.90265761646, -57705.63277073298, 149014.7216933634, -53930.19961478706, -53616.85050926811, -52697.746777265886, -50257.31626240209, 0.054, 0.922, 0.194, 192.0, 0.0, 0.0, 0.0, 0.0, 0.0, 0.0, 0.0, 0.0, 0.0, 1.7475027529807124E9, 0.0, 2025-05-17 10:25:52.980
116.0, -57158.12679030023, -49109.62123985544, -57881.80922052971, 149024.48940569037, -53969.06929839484, -53660.92814933397, -52733.040181760814, -50262.14423920444, 0.054, 0.922, 0.194, 192.0, 0.0, 0.0, 0.0, 0.0, 0.0, 0.0, 0.0, 0.0, 0.0, 1.7475027529807236E9, 0.0, 2025-05-17 10:25:52.980
160.0, 33202.80113253607, 20773.912462462482, -187500.02235174447, -187500.02235174447, 187500.0, -45387.69816013553, -187500.02235174447, -187500.02235174447, 0.054, 0.922, 0.194, 192.0, 0.0, 0.0, 0.0, 0.0, 0.0, 0.0, 0.0, 0.0, 0.0, 1.7475027529807358E9, 0.0, 2025-05-17 10:25:52.980
161.0, 30859.243078141582, 20670.42388563441, -187500.02235174447, -187500.02235174447, 187500.0, -45122.87469182905, -187500.02235174447, -187500.02235174447, 0.054, 0.922, 0.194, 192.0, 0.0, 0.0, 0.0, 0.0, 0.0, 0.0, 0.0, 0.0, 0.0, 1.747502752980748E9, 0.0, 2025-05-17 10:25:52.980
230.0, 37429.65011950137, 21478.640613393858, -187500.02235174447, -187500.02235174447, 187500.0, -46134.11231447606, -187500.02235174447, -187500.02235174447, 0.054, 0.922, 0.194, 192.0, 0.0, 0.0, 0.0, 0.0, 0.0, 0.0, 0.0, 0.0, 0.0, 1.7475027529807613E9, 0.0, 2025-05-17 10:25:52.980
231.0, 33029.530409518535, 20705.739641873795, -187500.02235174447, -187500.02235174447, 187500.0, -45368.54271513733, -187500.02235174447, -187500.02235174447, 0.054, 0.922, 0.194, 192.0, 0.0, 0.0, 0.0, 0.0, 0.0, 0.0, 0.0, 0.0, 0.0, 1.7475027529807727E9, 0.0, 2025-05-17 10:25:52.980
23.0, 34047.31709329094, 21190.191351198122, -187500.02235174447, -187500.02235174447, 187500.0, -45680.0813293554, -187500.02235174447, -187500.02235174447, 0.054, 0.922, 0.194, 192.0, 0.0, 0.0, 0.0, 0.0, 0.0, 0.0, 0.0, 0.0, 0.0, 1.7475027529807851E9, 0.0, 2025-05-17 10:25:52.980
29.0, 34398.73121961728, 20871.231957820888, -187500.02235174447, -187500.02235174447, 187500.0, -45580.23608687354, -187500.02235174447, -187500.02235174447, 0.054, 0.922, 0.194, 192.0, 0.0, 0.0, 0.0, 0.0, 0.0, 0.0, 0.0, 0.0, 0.0, 1.7475027529807968E9, 0.0, 2025-05-17 10:25:52.980
70.0, 37409.51119774714, 21501.48409622718, -187500.02235174447, -187500.02235174447, 187500.0, -46004.94158326883, -187500.02235174447, -187500.02235174447, 0.054, 0.922, 0.194, 192.0, 0.0, 0.0, 0.0, 0.0, 0.0, 0.0, 0.0, 0.0, 0.0, 1.7475027529808106E9, 0.0, 2025-05-17 10:25:52.980
31.0, 32501.582205484177, 20961.041267042314, -187500.02235174447, -187500.02235174447, 187500.0, -45389.82157585878, -187500.02235174447, -187500.02235174447, 0.054, 0.922, 0.194, 192.0, 0.0, 0.0, 0.0, 0.0, 0.0, 0.0, 0.0, 0.0, 0.0, 1.7475027529808276E9, 0.0, 2025-05-17 10:25:52.980
104.0, 35104.55460602696, 21063.63577409217, -187500.02235174447, -187500.02235174447, 187500.0, -45608.84631977634, -187500.02235174447, -187500.02235174447, 0.074, 0.9, -0.274, 192.0, 2.0, 80.0, 28.0, 32.0, 247.0, 112.0, 0.0, 0.0, 0.0, 1.7475027529808462E9, 0.0, 2025-05-17 10:25:52.980
104.0, 35104.55460602696, 21063.63577409217, -187500.02235174447, -187500.02235174447, 187500.0, -45608.84631977634, -187500.02235174447, -187500.02235174447, 0.074, 0.9, -0.274, 192.0, 2.0, 80.0, 28.0, 32.0, 247.0, 112.0, 0.0, 0.0, 0.0, 1.747502752980866E9, 0.0, 2025-05-17 10:25:52.980
34.0, 31189.803026891117, 20522.947075718293, -187500.02235174447, -187500.02235174447, 187500.0, -45081.97099947584, -187500.02235174447, -187500.02235174447, 0.066, 0.904, -0.272, 192.0, 2.0, 16.0, 28.0, 64.0, 247.0, 128.0, 0.0, 0.0, 0.0, 1.7475027529808831E9, 0.0, 2025-05-17 10:25:52.980
34.0, 31189.803026891117, 20522.947075718293, -187500.02235174447, -187500.02235174447, 187500.0, -45081.97099947584, -187500.02235174447, -187500.02235174447, 0.066, 0.904, -0.272, 192.0, 2.0, 16.0, 28.0, 64.0, 247.0, 128.0, 0.0, 0.0, 0.0, 1.7475027529809017E9, 0.0, 2025-05-17 10:25:52.980
65.0, 35484.601317000546, 21414.893438207324, -187500.02235174447, -187500.02235174447, 187500.0, -45759.76529833857, -187500.02235174447, -187500.02235174447, 0.066, 0.904, -0.272, 192.0, 0.0, 0.0, 0.0, 0.0, 0.0, 0.0, 0.0, 0.0, 0.0, 1.747502752980922E9, 0.0, 2025-05-17 10:25:52.980
144.0, -57088.67992027759, -50605.93642067152, -57201.3997675657, 155060.48858886823, -50729.094532620256, -49991.621076061856, -50127.944365494775, -49663.58687443577, 0.066, 0.904, -0.272, 192.0, 0.0, 0.0, 0.0, 0.0, 0.0, 0.0, 0.0, 0.0, 0.0, 1.747502752980942E9, 0.0, 2025-05-17 10:25:52.980
65.0, 35484.601317000546, 21414.893438207324, -187500.02235174447, -187500.02235174447, 187500.0, -45759.76529833857, -187500.02235174447, -187500.02235174447, 0.066, 0.904, -0.272, 192.0, 0.0, 0.0, 0.0, 0.0, 0.0, 0.0, 0.0, 0.0, 0.0, 1.747502752980961E9, 0.0, 2025-05-17 10:25:52.980
102.0, 32565.21762194844, 21027.962389941502, -187500.02235174447, -187500.02235174447, 187500.0, -45354.12583996366, -187500.02235174447, -187500.02235174447, 0.066, 0.904, -0.272, 192.0, 0.0, 0.0, 0.0, 0.0, 0.0, 0.0, 0.0, 0.0, 0.0, 1.7475027529809904E9, 0.0, 2025-05-17 10:25:52.980
63.0, 31915.854742032858, 20570.82451234156, -187500.02235174447, -187500.02235174447, 187500.0, -45119.700744116395, -187500.02235174447, -187500.02235174447, 0.066, 0.904, -0.272, 192.0, 0.0, 0.0, 0.0, 0.0, 0.0, 0.0, 0.0, 0.0, 0.0, 1.7475027529810083E9, 0.0, 2025-05-17 10:25:52.981
63.0, 31915.854742032858, 20570.82451234156, -187500.02235174447, -187500.02235174447, 187500.0, -45119.700744116395, -187500.02235174447, -187500.02235174447, 0.066, 0.904, -0.272, 192.0, 0.0, 0.0, 0.0, 0.0, 0.0, 0.0, 0.0, 0.0, 0.0, 1.7475027529810276E9, 0.0, 2025-05-17 10:25:52.981
180.0, 31543.2958654518, 20572.4561896868, -187500.02235174447, -187500.02235174447, 187500.0, -45045.02356589122, -187500.02235174447, -187500.02235174447, 0.066, 0.904, -0.272, 192.0, 0.0, 0.0, 0.0, 0.0, 0.0, 0.0, 0.0, 0.0, 0.0, 1.747502752981046E9, 0.0, 2025-05-17 10:25:52.981
228.0, 36186.04376149699, 21549.920326461834, -187500.02235174447, -187500.02235174447, 187500.0, -45856.59305531896, -187500.02235174447, -187500.02235174447, 0.066, 0.904, -0.272, 192.0, 0.0, 0.0, 0.0, 0.0, 0.0, 0.0, 0.0, 0.0, 0.0, 1.7475027529810655E9, 0.0, 2025-05-17 10:25:52.981
10.0, -56818.93906819094, -49864.28318789997, -56933.0894271242, 159630.70507415594, -50360.44721131888, -49696.89097367418, -49613.697780811526, -49276.74523314777, 0.066, 0.904, -0.272, 192.0, 0.0, 0.0, 0.0, 0.0, 0.0, 0.0, 0.0, 0.0, 0.0, 1.7475027529810846E9, 0.0, 2025-05-17 10:25:52.981
11.0, -56819.27434435777, -49877.515420617514, -56936.28572658131, 159646.44070225247, -50379.06621445015, -49542.038088087815, -49662.201066279544, -49279.98623609379, 0.066, 0.904, -0.272, 192.0, 0.0, 0.0, 0.0, 0.0, 0.0, 0.0, 0.0, 0.0, 0.0, 1.7475027529811041E9, 0.0, 2025-05-17 10:25:52.981
12.0, -56832.41717009749, -49799.172556301666, -56946.72399124193, 159658.06360936924, -50455.15155257602, -49597.31395212578, -49735.58184332631, -49316.71015223386, 0.066, 0.904, -0.272, 192.0, 0.0, 0.0, 0.0, 0.0, 0.0, 0.0, 0.0, 0.0, 0.0, 1.7475027529811237E9, 0.0, 2025-05-17 10:25:52.981
226.0, 31316.24684527479, 20653.145987170457, -187500.02235174447, -187500.02235174447, 187500.0, -44990.35119895353, -187500.02235174447, -187500.02235174447, 0.066, 0.904, -0.272, 192.0, 0.0, 0.0, 0.0, 0.0, 0.0, 0.0, 0.0, 0.0, 0.0, 1.7475027529811435E9, 0.0, 2025-05-17 10:25:52.981
66.0, 31236.920504202906, 20578.044125800625, -187500.02235174447, -187500.02235174447, 187500.0, -44955.057794458604, -187500.02235174447, -187500.02235174447, 0.066, 0.904, -0.272, 192.0, 0.0, 0.0, 0.0, 0.0, 0.0, 0.0, 0.0, 0.0, 0.0, 1.7475027529811625E9, 0.0, 2025-05-17 10:25:52.981
66.0, 31236.920504202906, 20578.044125800625, -187500.02235174447, -187500.02235174447, 187500.0, -44955.057794458604, -187500.02235174447, -187500.02235174447, 0.066, 0.904, -0.272, 192.0, 0.0, 0.0, 0.0, 0.0, 0.0, 0.0, 0.0, 0.0, 0.0, 1.7475027529811819E9, 0.0, 2025-05-17 10:25:52.981
64.0, 36758.98602711988, 21572.964974995255, -187500.02235174447, -187500.02235174447, 187500.0, -45906.973887321226, -187500.02235174447, -187500.02235174447, 0.066, 0.904, -0.272, 192.0, 0.0, 0.0, 0.0, 0.0, 0.0, 0.0, 0.0, 0.0, 0.0, 1.7475027529812007E9, 0.0, 2025-05-17 10:25:52.981
101.0, 34291.800474143085, 21319.675006827714, -187500.02235174447, -187500.02235174447, 187500.0, -45532.55981595037, -187500.02235174447, -187500.02235174447, 0.066, 0.904, -0.272, 192.0, 0.0, 0.0, 0.0, 0.0, 0.0, 0.0, 0.0, 0.0, 0.0, 1.7475027529812195E9, 0.0, 2025-05-17 10:25:52.981
101.0, 34291.800474143085, 21319.675006827714, -187500.02235174447, -187500.02235174447, 187500.0, -45532.55981595037, -187500.02235174447, -187500.02235174447, 0.066, 0.904, -0.272, 192.0, 0.0, 0.0, 0.0, 0.0, 0.0, 0.0, 0.0, 0.0, 0.0, 1.7475027529812393E9, 0.0, 2025-05-17 10:25:52.981
2.0, 37022.37898378122, 21451.39383690284, -187500.02235174447, -187500.02235174447, 187500.0, -45867.70187231325, -187500.02235174447, -187500.02235174447, 0.066, 0.904, -0.272, 192.0, 0.0, 0.0, 0.0, 0.0, 0.0, 0.0, 0.0, 0.0, 0.0, 1.747502752981259E9, 0.0, 2025-05-17 10:25:52.981
2.0, 37022.37898378122, 21451.39383690284, -187500.02235174447, -187500.02235174447, 187500.0, -45867.70187231325, -187500.02235174447, -187500.02235174447, 0.066, 0.904, -0.272, 192.0, 0.0, 0.0, 0.0, 0.0, 0.0, 0.0, 0.0, 0.0, 0.0, 1.7475027529812777E9, 0.0, 2025-05-17 10:25:52.981
63.0, -47108.693076216354, -37877.06498826325, -48414.5266907843, 160607.54336208623, -48451.29531041328, -47641.58101577533, -49000.20945074671, -48321.58813733914, 0.066, 0.904, -0.272, 192.0, 0.0, 0.0, 0.0, 0.0, 0.0, 0.0, 0.0, 0.0, 0.0, 1.7475027529812973E9, 0.0, 2025-05-17 10:25:52.981
64.0, -47395.44360583348, -38078.76713022794, -47070.3598344755, 160628.08461524066, -48292.62027652506, -47781.301770365455, -48898.374903008335, -48303.39381735252, 0.066, 0.904, -0.272, 192.0, 0.0, 0.0, 0.0, 0.0, 0.0, 0.0, 0.0, 0.0, 0.0, 1.7475027529813168E9, 0.0, 2025-05-17 10:25:52.981
75.0, -22356.3265629204, -13601.841163854739, -27680.489740430086, 160329.2417918732, -44387.30113354935, -43293.47381513999, -46743.04088867198, -44165.1247936636, 0.066, 0.904, -0.272, 192.0, 0.0, 0.0, 0.0, 0.0, 0.0, 0.0, 0.0, 0.0, 0.0, 1.747502752981336E9, 0.0, 2025-05-17 10:25:52.981
76.0, -23172.746380894947, -13742.232470778523, -25576.475331363123, 160392.49722868172, -44325.99029850844, -43160.32447341973, -46860.029919151064, -44080.97047578937, 0.066, 0.904, -0.272, 192.0, 0.0, 0.0, 0.0, 0.0, 0.0, 0.0, 0.0, 0.0, 0.0, 1.7475027529813547E9, 0.0, 2025-05-17 10:25:52.981
86.0, -24864.996953606245, -15649.640935616606, -23595.19435110025, 160853.2560888834, -45826.97699391568, -43889.19250836283, -47824.217119719644, -45517.226519254036, 0.066, 0.904, -0.272, 192.0, 0.0, 0.0, 0.0, 0.0, 0.0, 0.0, 0.0, 0.0, 0.0, 1.7475027529813747E9, 0.0, 2025-05-17 10:25:52.981
89.0, -28474.26724127141, -18584.939072720896, -25402.578759500833, 160993.8038580184, -46900.307762659526, -44718.57633812146, -47791.87414549281, -46638.39002113224, 0.066, 0.904, -0.272, 192.0, 0.0, 0.0, 0.0, 0.0, 0.0, 0.0, 0.0, 0.0, 0.0, 1.7475027529813952E9, 0.0, 2025-05-17 10:25:52.981
90.0, -28313.55819863775, -19221.38264434131, -26318.776764723872, 161034.61814339377, -47142.1759894104, -44882.03464532312, -47778.284284863985, -46890.718864288196, 0.066, 0.904, -0.272, 192.0, 0.0, 0.0, 0.0, 0.0, 0.0, 0.0, 0.0, 0.0, 0.0, 1.74750275298142E9, 0.0, 2025-05-17 10:25:52.981
90.0, -28313.55819863775, -19221.38264434131, -26318.776764723872, 161034.61814339377, -47142.1759894104, -44882.03464532312, -47778.284284863985, -46890.718864288196, 0.066, 0.904, -0.272, 192.0, 0.0, 0.0, 0.0, 0.0, 0.0, 0.0, 0.0, 0.0, 0.0, 1.7475027529814396E9, 0.0, 2025-05-17 10:25:52.981
94.0, -26658.70209440018, -17747.776835891826, -26687.8487691699, 161181.62556667635, -47483.889458643134, -44921.82075045357, -47495.69117971554, -46964.94900762427, 0.066, 0.904, -0.272, 192.0, 0.0, 0.0, 0.0, 0.0, 0.0, 0.0, 0.0, 0.0, 0.0, 1.7475027529814584E9, 0.0, 2025-05-17 10:25:52.981
95.0, -23412.982930300586, -15202.784860466107, -27258.689970813986, 161196.4447732502, -47276.77819452026, -44646.02257561953, -47418.82353053374, -46748.248845130074, 0.066, 0.904, -0.272, 192.0, 0.0, 0.0, 0.0, 0.0, 0.0, 0.0, 0.0, 0.0, 0.0, 1.7475027529814756E9, 0.0, 2025-05-17 10:25:52.981
2.0, 37022.37898378122, 21451.39383690284, -187500.02235174447, -187500.02235174447, 187500.0, -45867.70187231325, -187500.02235174447, -187500.02235174447, 0.066, 0.904, -0.272, 192.0, 0.0, 0.0, 0.0, 0.0, 0.0, 0.0, 0.0, 0.0, 0.0, 1.747502752981494E9, 0.0, 2025-05-17 10:25:52.981
95.0, -23412.982930300586, -15202.784860466107, -27258.689970813986, 161196.4447732502, -47276.77819452026, -44646.02257561953, -47418.82353053374, -46748.248845130074, 0.066, 0.904, -0.272, 192.0, 0.0, 0.0, 0.0, 0.0, 0.0, 0.0, 0.0, 0.0, 0.0, 1.7475027529815104E9, 0.0, 2025-05-17 10:25:52.981
62.0, 30922.654977161288, 20576.099524033016, -187500.02235174447, -187500.02235174447, 187500.0, -44918.26682308517, -187500.02235174447, -187500.02235174447, 0.066, 0.904, -0.272, 192.0, 0.0, 0.0, 0.0, 0.0, 0.0, 0.0, 0.0, 0.0, 0.0, 1.747502752981527E9, 0.0, 2025-05-17 10:25:52.981
151.0, -45353.634101585645, -35853.85213540222, -45726.28238514452, 161589.65666170797, -46596.10052062279, -46759.87175224683, -46674.778661105476, -46257.918627014, 0.066, 0.904, -0.272, 192.0, 0.0, 0.0, 0.0, 0.0, 0.0, 0.0, 0.0, 0.0, 0.0, 1.7475027529815445E9, 0.0, 2025-05-17 10:25:52.981
151.0, -45353.634101585645, -35853.85213540222, -45726.28238514452, 161589.65666170797, -46596.10052062279, -46759.87175224683, -46674.778661105476, -46257.918627014, 0.066, 0.904, -0.272, 192.0, 0.0, 0.0, 0.0, 0.0, 0.0, 0.0, 0.0, 0.0, 0.0, 1.7475027529815614E9, 0.0, 2025-05-17 10:25:52.981
62.0, 30922.654977161288, 20576.099524033016, -187500.02235174447, -187500.02235174447, 187500.0, -44918.26682308517, -187500.02235174447, -187500.02235174447, 0.066, 0.904, -0.272, 192.0, 0.0, 0.0, 0.0, 0.0, 0.0, 0.0, 0.0, 0.0, 0.0, 1.7475027529815743E9, 0.0, 2025-05-17 10:25:52.981
161.0, -47067.43175595185, -38598.80281672512, -46689.50846070152, 162013.66925402515, -47343.118172063616, -46715.07885635839, -46531.25810995795, -46204.09562636562, 0.066, 0.904, -0.272, 192.0, 0.0, 0.0, 0.0, 0.0, 0.0, 0.0, 0.0, 0.0, 0.0, 1.747502752981586E9, 0.0, 2025-05-17 10:25:52.981
99.0, 32596.19713976349, 20735.19924106589, -187500.02235174447, -187500.02235174447, 187500.0, -45134.78817162373, -187500.02235174447, -187500.02235174447, 0.066, 0.9, -0.266, 192.0, 2.0, 16.0, 28.0, 32.0, 247.0, 176.0, 0.0, 0.0, 0.0, 1.7475027529815972E9, 0.0, 2025-05-17 10:25:52.981
162.0, -45703.01421916654, -37387.13710154738, -47993.01749384612, 162027.81790826537, -47235.98626088932, -46634.59022457484, -46506.51472884593, -46184.850774389604, 0.066, 0.9, -0.266, 192.0, 0.0, 0.0, 0.0, 0.0, 0.0, 0.0, 0.0, 0.0, 0.0, 1.7475027529816096E9, 0.0, 2025-05-17 10:25:52.981
167.0, -47329.975346323896, -38868.32015136721, -48773.20513405861, 162204.75431737356, -46893.4681288562, -46338.004927397364, -46459.64312072314, -46103.93745946139, 0.066, 0.9, -0.266, 192.0, 0.0, 0.0, 0.0, 0.0, 0.0, 0.0, 0.0, 0.0, 0.0, 1.7475027529816213E9, 0.0, 2025-05-17 10:25:52.981
168.0, -49593.44710033502, -40442.508809865576, -47831.146160500786, 162274.15648390728, -46966.848905902974, -46389.391587900114, -46530.56520587984, -46135.09579123209, 0.066, 0.9, -0.266, 192.0, 0.0, 0.0, 0.0, 0.0, 0.0, 0.0, 0.0, 0.0, 0.0, 1.7475027529816449E9, 0.0, 2025-05-17 10:25:52.981
186.0, 35958.77122387543, 21186.302147662896, -187500.02235174447, -187500.02235174447, 187500.0, -45623.754933328026, -187500.02235174447, -187500.02235174447, 0.066, 0.9, -0.266, 192.0, 0.0, 0.0, 0.0, 0.0, 0.0, 0.0, 0.0, 0.0, 0.0, 1.7475027529816625E9, 0.0, 2025-05-17 10:25:52.981
7.0, 31410.370041176087, 20798.655843574506, -187500.02235174447, -187500.02235174447, 187500.0, -45033.87004540802, -187500.02235174447, -187500.02235174447, 0.066, 0.9, -0.266, 192.0, 0.0, 0.0, 0.0, 0.0, 0.0, 0.0, 0.0, 0.0, 0.0, 1.7475027529816747E9, 0.0, 2025-05-17 10:25:52.981
182.0, -53743.00375497386, -46642.88272176775, -52942.16310288467, 163033.75816747645, -47204.2914872517, -46690.04490256845, -46786.17975547073, -46242.74179252885, 0.066, 0.9, -0.266, 192.0, 0.0, 0.0, 0.0, 0.0, 0.0, 0.0, 0.0, 0.0, 0.0, 1.7475027529816868E9, 0.0, 2025-05-17 10:25:52.981
5.0, -54600.32726530162, -54634.3466203626, -54686.18031575446, 163916.78618392782, -54762.33270911369, -54645.92482399045, -54759.11405791212, -52162.66836675029, 0.066, 0.9, -0.266, 192.0, 0.0, 0.0, 0.0, 0.0, 0.0, 0.0, 0.0, 0.0, 0.0, 1.747502752981701E9, 0.0, 2025-05-17 10:25:52.981
6.0, -54589.91135238545, -54624.020114424246, -54677.641949372526, 163876.7765613528, -54752.922624698, -54635.553614563185, -54694.85279260312, -51995.16439380222, 0.066, 0.9, -0.266, 192.0, 0.0, 0.0, 0.0, 0.0, 0.0, 0.0, 0.0, 0.0, 0.0, 1.74750275298172E9, 0.0, 2025-05-17 10:25:52.981
7.0, -54588.25732329576, -54622.16491963446, -54676.21143772739, 163852.77078780782, -54751.4250578195, -54633.76547500676, -54653.166789193965, -51922.789445255934, 0.066, 0.9, -0.266, 192.0, 0.0, 0.0, 0.0, 0.0, 0.0, 0.0, 0.0, 0.0, 0.0, 1.7475027529817383E9, 0.0, 2025-05-17 10:25:52.981
89.0, 33861.79761431189, 20817.319550194687, -187500.02235174447, -187500.02235174447, 187500.0, -45331.10354317469, -187500.02235174447, -187500.02235174447, 0.066, 0.9, -0.266, 192.0, 0.0, 0.0, 0.0, 0.0, 0.0, 0.0, 0.0, 0.0, 0.0, 1.7475027529817643E9, 0.0, 2025-05-17 10:25:52.981
8.0, -54596.750986188774, -54630.47976857183, -54683.363995953085, 163860.929174534, -54759.24816837886, -54642.03562045522, -54683.76632735328, -51932.937137238645, 0.066, 0.9, -0.266, 192.0, 0.0, 0.0, 0.0, 0.0, 0.0, 0.0, 0.0, 0.0, 0.0, 1.7475027529817808E9, 0.0, 2025-05-17 10:25:52.981
121.0, 36830.086926232216, 21517.890276657377, -187500.02235174447, -187500.02235174447, 187500.0, -45879.615352107925, -187500.02235174447, -187500.02235174447, 0.066, 0.9, -0.266, 192.0, 0.0, 0.0, 0.0, 0.0, 0.0, 0.0, 0.0, 0.0, 0.0, 1.7475027529817977E9, 0.0, 2025-05-17 10:25:52.981
122.0, 36253.47897451866, 21147.32070533284, -187500.02235174447, -187500.02235174447, 187500.0, -45678.494355499075, -187500.02235174447, -187500.02235174447, 0.066, 0.9, -0.266, 192.0, 0.0, 0.0, 0.0, 0.0, 0.0, 0.0, 0.0, 0.0, 0.0, 1.7475027529818146E9, 0.0, 2025-05-17 10:25:52.981
132.0, 31254.488975344775, 20667.451103621854, -187500.02235174447, -187500.02235174447, 187500.0, -44969.02763474317, -187500.02235174447, -187500.02235174447, 0.066, 0.9, -0.266, 192.0, 0.0, 0.0, 0.0, 0.0, 0.0, 0.0, 0.0, 0.0, 0.0, 1.7475027529818344E9, 0.0, 2025-05-17 10:25:52.981
83.0, -55327.36245719939, -55362.58880646096, -55405.817080237524, 165251.6100110543, -55481.589493941014, -55366.47800999618, -55493.055938846584, -55445.513778390145, 0.066, 0.9, -0.266, 192.0, 0.0, 0.0, 0.0, 0.0, 0.0, 0.0, 0.0, 0.0, 0.0, 1.7475027530283916E9, 0.0, 2025-05-17 10:25:53.028
140.0, 31190.585337947054, 20611.012948872205, -187500.02235174447, -187500.02235174447, 187500.0, -44908.40970378038, -187500.02235174447, -187500.02235174447, 0.066, 0.9, -0.266, 192.0, 0.0, 0.0, 0.0, 0.0, 0.0, 0.0, 0.0, 0.0, 0.0, 1.747502753028417E9, 0.0, 2025-05-17 10:25:53.028
85.0, -55320.47811990716, -55355.704469168726, -55399.08920515647, 165263.23291817104, -55474.83926711551, -55359.6160244484, -55486.283360276626, -55438.22710969771, 0.066, 0.9, -0.266, 192.0, 0.0, 0.0, 0.0, 0.0, 0.0, 0.0, 0.0, 0.0, 0.0, 1.7475027530284312E9, 0.0, 2025-05-17 10:25:53.028
86.0, -55323.741474597635, -55358.92312037029, -55403.24662962516, 165253.28639188842, -55478.527304950636, -55363.19230356125, -55489.85963938948, -55441.91514753284, -0.044, 0.932, 0.266, 192.0, 254.0, 160.0, 29.0, 32.0, 8.0, 80.0, 0.0, 0.0, 0.0, 1.7475027530444117E9, 0.0, 2025-05-17 10:25:53.044
143.0, 35612.49799877382, 21086.9262918146, -187500.02235174447, -187500.02235174447, 187500.0, -45522.36742047875, -187500.02235174447, -187500.02235174447, -0.044, 0.932, 0.266, 192.0, 0.0, 0.0, 0.0, 0.0, 0.0, 0.0, 0.0, 0.0, 0.0, 1.747502753060486E9, 0.0, 2025-05-17 10:25:53.060
146.0, 36610.570443936645, 21518.73964294668, -187500.02235174447, -187500.02235174447, 187500.0, -45821.389057801855, -187500.02235174447, -187500.02235174447, -0.044, 0.932, 0.266, 192.0, 0.0, 0.0, 0.0, 0.0, 0.0, 0.0, 0.0, 0.0, 0.0, 1.747502753108732E9, 0.0, 2025-05-17 10:25:53.108
147.0, 36415.03738344162, 21228.323427238873, -187500.02235174447, -187500.02235174447, 187500.0, -45676.01331186454, -187500.02235174447, -187500.02235174447, -0.044, 0.932, 0.266, 192.0, 0.0, 0.0, 0.0, 0.0, 0.0, 0.0, 0.0, 0.0, 0.0, 1.7475027531087713E9, 0.0, 2025-05-17 10:25:53.108
148.0, 31784.873519524757, 20605.872047647485, -187500.02235174447, -187500.02235174447, 187500.0, -44971.19575395534, -187500.02235174447, -187500.02235174447, -0.044, 0.932, 0.266, 192.0, 0.0, 0.0, 0.0, 0.0, 0.0, 0.0, 0.0, 0.0, 0.0, 1.747502753140899E9, 0.0, 2025-05-17 10:25:53.140
152.0, 32309.96070026883, 20647.401588845445, -187500.02235174447, -187500.02235174447, 187500.0, -45043.61540599053, -187500.02235174447, -187500.02235174447, -0.044, 0.932, 0.266, 192.0, 0.0, 0.0, 0.0, 0.0, 0.0, 0.0, 0.0, 0.0, 0.0, 1.747502753189109E9, 0.0, 2025-05-17 10:25:53.189
152.0, 32309.96070026883, 20647.401588845445, -187500.02235174447, -187500.02235174447, 187500.0, -45043.61540599053, -187500.02235174447, -187500.02235174447, -0.044, 0.932, 0.266, 192.0, 0.0, 0.0, 0.0, 0.0, 0.0, 0.0, 0.0, 0.0, 0.0, 1.7475027532236197E9, 0.0, 2025-05-17 10:25:53.223
153.0, 31238.060443170125, 20747.313886560667, -187500.02235174447, -187500.02235174447, 187500.0, -44982.57279188309, -187500.02235174447, -187500.02235174447, -0.044, 0.932, 0.266, 192.0, 0.0, 0.0, 0.0, 0.0, 0.0, 0.0, 0.0, 0.0, 0.0, 1.747502753252427E9, 0.0, 2025-05-17 10:25:53.252
2.0, 33571.44845383745, 21165.85030148629, -187500.02235174447, -187500.02235174447, 187500.0, -45389.73216888096, -187500.02235174447, -187500.02235174447, -0.044, 0.932, 0.266, 192.0, 0.0, 0.0, 0.0, 0.0, 0.0, 0.0, 0.0, 0.0, 0.0, 1.747502753252458E9, 0.0, 2025-05-17 10:25:53.252
155.0, 37427.861979944944, 21475.243148236652, -187500.02235174447, -187500.02235174447, 187500.0, -45912.42771296832, -187500.02235174447, -187500.02235174447, 0.068, 0.902, -0.26, 192.0, 2.0, 32.0, 28.0, 48.0, 247.0, 224.0, 0.0, 0.0, 0.0, 1.747502753252476E9, 0.0, 2025-05-17 10:25:53.252
0.0, 33102.88883482085, 20731.2429822973, -187500.02235174447, -187500.02235174447, 187500.0, -45181.34685532413, -187500.02235174447, -187500.02235174447, 0.068, 0.902, -0.26, 192.0, 0.0, 0.0, 0.0, 0.0, 0.0, 0.0, 0.0, 0.0, 0.0, 1.7475027532524917E9, 0.0, 2025-05-17 10:25:53.252
164.0, 34860.25003913046, 20960.77304610885, -187500.02235174447, -187500.02235174447, 187500.0, -45469.05850995285, -187500.02235174447, -187500.02235174447, 0.068, 0.902, -0.26, 192.0, 0.0, 0.0, 0.0, 0.0, 0.0, 0.0, 0.0, 0.0, 0.0, 1.7475027532525065E9, 0.0, 2025-05-17 10:25:53.252
158.0, 33943.04620540693, 21206.239903717033, -187500.02235174447, -187500.02235174447, 187500.0, -45464.72227152852, -187500.02235174447, -187500.02235174447, 0.068, 0.902, -0.26, 192.0, 0.0, 0.0, 0.0, 0.0, 0.0, 0.0, 0.0, 0.0, 0.0, 1.747502753284578E9, 0.0, 2025-05-17 10:25:53.284
158.0, 33943.04620540693, 21206.239903717033, -187500.02235174447, -187500.02235174447, 187500.0, -45464.72227152852, -187500.02235174447, -187500.02235174447, 0.068, 0.902, -0.26, 192.0, 0.0, 0.0, 0.0, 0.0, 0.0, 0.0, 0.0, 0.0, 0.0, 1.7475027533167512E9, 0.0, 2025-05-17 10:25:53.316
179.0, 34461.36080758105, 21310.577846834403, -187500.02235174447, -187500.02235174447, 187500.0, -45512.666763385154, -187500.02235174447, -187500.02235174447, 0.068, 0.902, -0.26, 192.0, 0.0, 0.0, 0.0, 0.0, 0.0, 0.0, 0.0, 0.0, 0.0, 1.7475027533328948E9, 0.0, 2025-05-17 10:25:53.332
179.0, 34461.36080758105, 21310.577846834403, -187500.02235174447, -187500.02235174447, 187500.0, -45512.666763385154, -187500.02235174447, -187500.02235174447, 0.068, 0.902, -0.26, 192.0, 0.0, 0.0, 0.0, 0.0, 0.0, 0.0, 0.0, 0.0, 0.0, 1.7475027533810604E9, 0.0, 2025-05-17 10:25:53.381
162.0, 33149.492222010165, 21076.59978587625, -187500.02235174447, -187500.02235174447, 187500.0, -45344.51458984787, -187500.02235174447, -187500.02235174447, 0.068, 0.902, -0.26, 192.0, 0.0, 0.0, 0.0, 0.0, 0.0, 0.0, 0.0, 0.0, 0.0, 1.7475027533971524E9, 0.0, 2025-05-17 10:25:53.397
177.0, 32380.771026703245, 20666.13235069899, -187500.02235174447, -187500.02235174447, 187500.0, -45076.67363603993, -187500.02235174447, -187500.02235174447, 0.068, 0.902, -0.26, 192.0, 0.0, 0.0, 0.0, 0.0, 0.0, 0.0, 0.0, 0.0, 0.0, 1.7475027534132247E9, 0.0, 2025-05-17 10:25:53.413
177.0, 32380.771026703245, 20666.13235069899, -187500.02235174447, -187500.02235174447, 187500.0, -45076.67363603993, -187500.02235174447, -187500.02235174447, 0.068, 0.902, -0.26, 192.0, 0.0, 0.0, 0.0, 0.0, 0.0, 0.0, 0.0, 0.0, 0.0, 1.7475027534936278E9, 0.0, 2025-05-17 10:25:53.493
13.0, 31314.078726062624, 20546.97520100775, -187500.02235174447, -187500.02235174447, 187500.0, -44978.52712613668, -187500.02235174447, -187500.02235174447, 0.068, 0.902, -0.26, 192.0, 0.0, 0.0, 0.0, 0.0, 0.0, 0.0, 0.0, 0.0, 0.0, 1.747502753574068E9, 0.0, 2025-05-17 10:25:53.574
110.0, 31858.142537849253, 20842.152338284533, -187500.02235174447, -187500.02235174447, 187500.0, -45025.95752787084, -187500.02235174447, -187500.02235174447, 0.068, 0.902, -0.26, 192.0, 0.0, 0.0, 0.0, 0.0, 0.0, 0.0, 0.0, 0.0, 0.0, 1.7475027537830577E9, 0.0, 2025-05-17 10:25:53.783
82.0, 37055.81719348636, 21543.237154869697, -187500.02235174447, -187500.02235174447, 187500.0, -45902.86116634145, -187500.02235174447, -187500.02235174447, 0.068, 0.902, -0.26, 192.0, 0.0, 0.0, 0.0, 0.0, 0.0, 0.0, 0.0, 0.0, 0.0, 1.747502753847386E9, 0.0, 2025-05-17 10:25:53.847
106.0, 32279.182348153874, 20933.593324851194, -187500.02235174447, -187500.02235174447, 187500.0, -45100.88057528503, -187500.02235174447, -187500.02235174447, 0.068, 0.902, -0.26, 192.0, 0.0, 0.0, 0.0, 0.0, 0.0, 0.0, 0.0, 0.0, 0.0, 1.7475027538796525E9, 0.0, 2025-05-17 10:25:53.879
102.0, 33013.14658083279, 21062.249965935942, -187500.02235174447, -187500.02235174447, 187500.0, -45207.43134110348, -187500.02235174447, -187500.02235174447, 0.068, 0.902, -0.26, 192.0, 0.0, 0.0, 0.0, 0.0, 0.0, 0.0, 0.0, 0.0, 0.0, 1.7475027539278307E9, 0.0, 2025-05-17 10:25:53.927
129.0, 35423.5139994042, 21031.40455858762, -187500.02235174447, -187500.02235174447, 187500.0, -45463.26940813892, -187500.02235174447, -187500.02235174447, 0.068, 0.902, -0.26, 192.0, 0.0, 0.0, 0.0, 0.0, 0.0, 0.0, 0.0, 0.0, 0.0, 1.7475027539599063E9, 0.0, 2025-05-17 10:25:53.959
12.0, 30969.593640517433, 20656.72226628331, -187500.02235174447, -187500.02235174447, 187500.0, -44926.35815457799, -187500.02235174447, -187500.02235174447, 0.068, 0.902, -0.26, 192.0, 0.0, 0.0, 0.0, 0.0, 0.0, 0.0, 0.0, 0.0, 0.0, 1.7475027543136947E9, 0.0, 2025-05-17 10:25:54.313
44.0, 36097.642612176256, 21178.81431327037, -187500.02235174447, -187500.02235174447, 187500.0, -45668.905457127745, -187500.02235174447, -187500.02235174447, 0.068, 0.902, -0.26, 192.0, 0.0, 0.0, 0.0, 0.0, 0.0, 0.0, 0.0, 0.0, 0.0, 1.747502754394097E9, 0.0, 2025-05-17 10:25:54.394
20.0, 31407.37490741908, 20597.22192254328, -187500.02235174447, -187500.02235174447, 187500.0, -44957.69530030433, -187500.02235174447, -187500.02235174447, 0.07, 0.906, -0.264, 192.0, 2.0, 48.0, 28.0, 80.0, 247.0, 192.0, 0.0, 0.0, 0.0, 1.7475027544101543E9, 0.0, 2025-05-17 10:25:54.410
80.0, 34012.76129636303, 21201.702499592604, -187500.02235174447, -187500.02235174447, 187500.0, -45496.12647248823, -187500.02235174447, -187500.02235174447, 0.066, 0.9, -0.26, 192.0, 2.0, 16.0, 28.0, 32.0, 247.0, 224.0, 0.0, 0.0, 0.0, 1.747502754603113E9, 0.0, 2025-05-17 10:25:54.603
107.0, 34058.56002075196, 20850.847166877647, -187500.02235174447, -187500.02235174447, 187500.0, -45364.0053110129, -187500.02235174447, -187500.02235174447, 0.066, 0.9, -0.26, 192.0, 0.0, 0.0, 0.0, 0.0, 0.0, 0.0, 0.0, 0.0, 0.0, 1.7475027546835186E9, 0.0, 2025-05-17 10:25:54.683
114.0, 36884.736941425435, 21531.100157630462, -187500.02235174447, -187500.02235174447, 187500.0, -45947.76582095216, -187500.02235174447, -187500.02235174447, 0.066, 0.9, -0.26, 192.0, 0.0, 0.0, 0.0, 0.0, 0.0, 0.0, 0.0, 0.0, 0.0, 1.747502754715682E9, 0.0, 2025-05-17 10:25:54.715
121.0, 31315.15160979648, 20768.54804379321, -187500.02235174447, -187500.02235174447, 187500.0, -45092.029284480726, -187500.02235174447, -187500.02235174447, 0.066, 0.9, -0.26, 192.0, 0.0, 0.0, 0.0, 0.0, 0.0, 0.0, 0.0, 0.0, 0.0, 1.7475027547479076E9, 0.0, 2025-05-17 10:25:54.747
134.0, 32816.74180230401, 21064.59689910375, -187500.02235174447, -187500.02235174447, 187500.0, -45335.68565078803, -187500.02235174447, -187500.02235174447, 0.066, 0.9, -0.26, 192.0, 0.0, 0.0, 0.0, 0.0, 0.0, 0.0, 0.0, 0.0, 0.0, 1.7475027548221772E9, 0.0, 2025-05-17 10:25:54.822
135.0, 37344.7134905712, 21586.733649579724, -187500.02235174447, -187500.02235174447, 187500.0, -45996.26910642017, -187500.02235174447, -187500.02235174447, 0.066, 0.9, -0.26, 192.0, 0.0, 0.0, 0.0, 0.0, 0.0, 0.0, 0.0, 0.0, 0.0, 1.7475027548222072E9, 0.0, 2025-05-17 10:25:54.822
138.0, 32184.679172596836, 20927.781871292817, -187500.02235174447, -187500.02235174447, 187500.0, -45238.12028624061, -187500.02235174447, -187500.02235174447, 0.066, 0.9, -0.26, 192.0, 0.0, 0.0, 0.0, 0.0, 0.0, 0.0, 0.0, 0.0, 0.0, 1.7475027548543987E9, 0.0, 2025-05-17 10:25:54.854
147.0, 35193.067514069975, 21401.32592932295, -187500.02235174447, -187500.02235174447, 187500.0, -45673.46521299663, -187500.02235174447, -187500.02235174447, 0.066, 0.9, -0.26, 192.0, 0.0, 0.0, 0.0, 0.0, 0.0, 0.0, 0.0, 0.0, 0.0, 1.7475027549186811E9, 0.0, 2025-05-17 10:25:54.918
162.0, 31277.645382600473, 20628.112033380516, -187500.02235174447, -187500.02235174447, 187500.0, -45001.504719436736, -187500.02235174447, -187500.02235174447, 0.066, 0.9, -0.26, 192.0, 0.0, 0.0, 0.0, 0.0, 0.0, 0.0, 0.0, 0.0, 0.0, 1.7475027549830675E9, 0.0, 2025-05-17 10:25:54.983
178.0, 33761.63944740766, 20866.046353107256, -187500.02235174447, -187500.02235174447, 187500.0, -45339.53015083434, -187500.02235174447, -187500.02235174447, 0.066, 0.9, -0.26, 192.0, 0.0, 0.0, 0.0, 0.0, 0.0, 0.0, 0.0, 0.0, 0.0, 1.7475027550794263E9, 0.0, 2025-05-17 10:25:55.079
198.0, 37358.43746166676, 21437.558107085002, -187500.02235174447, -187500.02235174447, 187500.0, -46068.44288926636, -187500.02235174447, -187500.02235174447, 0.066, 0.9, -0.26, 192.0, 0.0, 0.0, 0.0, 0.0, 0.0, 0.0, 0.0, 0.0, 0.0, 1.7475027551599457E9, 0.0, 2025-05-17 10:25:55.159
198.0, 37358.43746166676, 21437.558107085002, -187500.02235174447, -187500.02235174447, 187500.0, -46068.44288926636, -187500.02235174447, -187500.02235174447, 0.066, 0.9, -0.26, 192.0, 0.0, 0.0, 0.0, 0.0, 0.0, 0.0, 0.0, 0.0, 0.0, 1.747502755175946E9, 0.0, 2025-05-17 10:25:55.175
213.0, 31374.02610469176, 20735.4451102549, -187500.02235174447, -187500.02235174447, 187500.0, -45193.19327988545, -187500.02235174447, -187500.02235174447, 0.066, 0.9, -0.26, 192.0, 0.0, 0.0, 0.0, 0.0, 0.0, 0.0, 0.0, 0.0, 0.0, 1.747502755175986E9, 0.0, 2025-05-17 10:25:55.175
219.0, 37206.9820412376, 21362.255080015075, -187500.02235174447, -187500.02235174447, 187500.0, -46021.4148189324, -187500.02235174447, -187500.02235174447, 0.066, 0.9, -0.26, 192.0, 0.0, 0.0, 0.0, 0.0, 0.0, 0.0, 0.0, 0.0, 0.0, 1.747502755304599E9, 0.0, 2025-05-17 10:25:55.304
247.0, 33980.8206535364, 21221.43908994664, -187500.02235174447, -187500.02235174447, 187500.0, -45579.18555488415, -187500.02235174447, -187500.02235174447, 0.066, 0.9, -0.26, 192.0, 0.0, 0.0, 0.0, 0.0, 0.0, 0.0, 0.0, 0.0, 0.0, 1.747502755385013E9, 0.0, 2025-05-17 10:25:55.385
4.0, 36569.107957972046, 21490.956424588734, -187500.02235174447, -187500.02235174447, 187500.0, -45976.06312943258, -187500.02235174447, -187500.02235174447, 0.066, 0.9, -0.26, 192.0, 0.0, 0.0, 0.0, 0.0, 0.0, 0.0, 0.0, 0.0, 0.0, 1.747502755401124E9, 0.0, 2025-05-17 10:25:55.401
19.0, 30878.622040584334, 20586.82836137156, -187500.02235174447, -187500.02235174447, 187500.0, -44991.69230362085, -187500.02235174447, -187500.02235174447, 0.066, 0.9, -0.26, 192.0, 0.0, 0.0, 0.0, 0.0, 0.0, 0.0, 0.0, 0.0, 0.0, 1.74750275545736E9, 0.0, 2025-05-17 10:25:55.457
31.0, 31833.220342781588, 20554.060704000083, -187500.02235174447, -187500.02235174447, 187500.0, -45118.00201153779, -187500.02235174447, -187500.02235174447, 0.066, 0.9, -0.26, 192.0, 0.0, 0.0, 0.0, 0.0, 0.0, 0.0, 0.0, 0.0, 0.0, 1.7475027554574006E9, 0.0, 2025-05-17 10:25:55.457
255.0, 32463.941867821442, 20961.1977292535, -187500.02235174447, -187500.02235174447, 187500.0, -45315.390266822615, -187500.02235174447, -187500.02235174447, 0.066, 0.9, -0.26, 192.0, 0.0, 0.0, 0.0, 0.0, 0.0, 0.0, 0.0, 0.0, 0.0, 1.7475027554574149E9, 0.0, 2025-05-17 10:25:55.457
255.0, 32463.941867821442, 20961.1977292535, -187500.02235174447, -187500.02235174447, 187500.0, -45315.390266822615, -187500.02235174447, -187500.02235174447, 0.066, 0.9, -0.26, 192.0, 0.0, 0.0, 0.0, 0.0, 0.0, 0.0, 0.0, 0.0, 0.0, 1.7475027554574275E9, 0.0, 2025-05-17 10:25:55.457
27.0, 31317.67735691993, 20542.39309339441, -187500.02235174447, -187500.02235174447, 187500.0, -45039.81560943313, -187500.02235174447, -187500.02235174447, 0.066, 0.9, -0.26, 192.0, 0.0, 0.0, 0.0, 0.0, 0.0, 0.0, 0.0, 0.0, 0.0, 1.7475027555216794E9, 0.0, 2025-05-17 10:25:55.521
60.0, 32744.791536902376, 20678.604624105054, -187500.02235174447, -187500.02235174447, 187500.0, -45210.64999230504, -187500.02235174447, -187500.02235174447, 0.066, 0.9, -0.26, 192.0, 0.0, 0.0, 0.0, 0.0, 0.0, 0.0, 0.0, 0.0, 0.0, 1.7475027555699103E9, 0.0, 2025-05-17 10:25:55.569
78.0, 31699.579262683306, 20821.49932640783, -187500.02235174447, -187500.02235174447, 187500.0, -45136.24103501333, -187500.02235174447, -187500.02235174447, 0.066, 0.9, -0.26, 192.0, 0.0, 0.0, 0.0, 0.0, 0.0, 0.0, 0.0, 0.0, 0.0, 1.7475027557096648E9, 0.0, 2025-05-17 10:25:55.709
74.0, 32222.632434681946, 20912.1356501741, -187500.02235174447, -187500.02235174447, 187500.0, -45246.34572820017, -187500.02235174447, -187500.02235174447, 0.066, 0.9, -0.26, 192.0, 0.0, 0.0, 0.0, 0.0, 0.0, 0.0, 0.0, 0.0, 0.0, 1.7475027557097015E9, 0.0, 2025-05-17 10:25:55.709
95.0, 32451.782518837754, 20992.1548953241, -187500.02235174447, -187500.02235174447, 187500.0, -45324.84505472721, -187500.02235174447, -187500.02235174447, 0.066, 0.9, -0.26, 192.0, 0.0, 0.0, 0.0, 0.0, 0.0, 0.0, 0.0, 0.0, 0.0, 1.747502755741774E9, 0.0, 2025-05-17 10:25:55.741
127.0, 31942.922704568235, 20559.49217790272, -187500.02235174447, -187500.02235174447, 187500.0, -45173.45668953141, -187500.02235174447, -187500.02235174447, 0.066, 0.9, -0.26, 192.0, 0.0, 0.0, 0.0, 0.0, 0.0, 0.0, 0.0, 0.0, 0.0, 1.7475027559026134E9, 0.0, 2025-05-17 10:25:55.902
151.0, 37097.883176551244, 21329.867402299333, -187500.02235174447, -187500.02235174447, 187500.0, -45902.79411110808, -187500.02235174447, -187500.02235174447, 0.066, 0.9, -0.26, 192.0, 0.0, 0.0, 0.0, 0.0, 0.0, 0.0, 0.0, 0.0, 0.0, 1.7475027559669E9, 0.0, 2025-05-17 10:25:55.966
142.0, 37690.025590661244, 21578.50820762017, -187500.02235174447, -187500.02235174447, 187500.0, -46092.582773278096, -187500.02235174447, -187500.02235174447, 0.066, 0.9, -0.26, 192.0, 0.0, 0.0, 0.0, 0.0, 0.0, 0.0, 0.0, 0.0, 0.0, 1.7475027560311773E9, 0.0, 2025-05-17 10:25:56.031
128.0, 31483.41554205603, 20736.562697477664, -187500.02235174447, -187500.02235174447, 187500.0, -45168.919285406984, -187500.02235174447, -187500.02235174447, 0.066, 0.9, -0.26, 192.0, 0.0, 0.0, 0.0, 0.0, 0.0, 0.0, 0.0, 0.0, 0.0, 1.7475027560312235E9, 0.0, 2025-05-17 10:25:56.031
128.0, 31483.41554205603, 20736.562697477664, -187500.02235174447, -187500.02235174447, 187500.0, -45168.919285406984, -187500.02235174447, -187500.02235174447, 0.066, 0.9, -0.26, 192.0, 0.0, 0.0, 0.0, 0.0, 0.0, 0.0, 0.0, 0.0, 0.0, 1.747502756063338E9, 0.0, 2025-05-17 10:25:56.063
149.0, 31924.46016364815, 20836.49734693734, -187500.02235174447, -187500.02235174447, 187500.0, -45183.87260244758, -187500.02235174447, -187500.02235174447, 0.066, 0.9, -0.26, 192.0, 0.0, 0.0, 0.0, 0.0, 0.0, 0.0, 0.0, 0.0, 0.0, 1.747502756079424E9, 0.0, 2025-05-17 10:25:56.079
190.0, 31656.753320306936, 20721.922304859436, -187500.02235174447, -187500.02235174447, 187500.0, -44933.08602965904, -187500.02235174447, -187500.02235174447, 0.066, 0.9, -0.26, 192.0, 0.0, 0.0, 0.0, 0.0, 0.0, 0.0, 0.0, 0.0, 0.0, 1.7475027561599033E9, 0.0, 2025-05-17 10:25:56.159
157.0, 31306.81440911465, 20702.744508116783, -187500.02235174447, -187500.02235174447, 187500.0, -45041.04495537817, -187500.02235174447, -187500.02235174447, 0.066, 0.9, -0.26, 192.0, 0.0, 0.0, 0.0, 0.0, 0.0, 0.0, 0.0, 0.0, 0.0, 1.7475027561759152E9, 0.0, 2025-05-17 10:25:56.175
188.0, 38359.97442722016, 21732.53407866169, -187500.02235174447, -187500.02235174447, 187500.0, -46050.203865790834, -187500.02235174447, -187500.02235174447, 0.066, 0.9, -0.26, 192.0, 0.0, 0.0, 0.0, 0.0, 0.0, 0.0, 0.0, 0.0, 0.0, 1.7475027562080784E9, 0.0, 2025-05-17 10:25:56.208
72.0, 30766.8633183078, 20696.709537113853, -187500.02235174447, -187500.02235174447, 187500.0, -44774.45569925973, -187500.02235174447, -187500.02235174447, 0.066, 0.9, -0.26, 192.0, 0.0, 0.0, 0.0, 0.0, 0.0, 0.0, 0.0, 0.0, 0.0, 1.7475027564814236E9, 0.0, 2025-05-17 10:25:56.481
73.0, 33692.63961227413, 21319.36208240534, -187500.02235174447, -187500.02235174447, 187500.0, -45230.23012044789, -187500.02235174447, -187500.02235174447, 0.066, 0.9, -0.26, 192.0, 0.0, 0.0, 0.0, 0.0, 0.0, 0.0, 0.0, 0.0, 0.0, 1.7475027564814727E9, 0.0, 2025-05-17 10:25:56.481
73.0, 33692.63961227413, 21319.36208240534, -187500.02235174447, -187500.02235174447, 187500.0, -45230.23012044789, -187500.02235174447, -187500.02235174447, 0.066, 0.9, -0.26, 192.0, 0.0, 0.0, 0.0, 0.0, 0.0, 0.0, 0.0, 0.0, 0.0, 1.747502756529681E9, 0.0, 2025-05-17 10:25:56.529
81.0, 31991.582452247436, 21024.02848291737, -187500.02235174447, -187500.02235174447, 187500.0, -44969.07233823209, -187500.02235174447, -187500.02235174447, 0.074, 0.914, -0.17, 192.0, 2.0, 80.0, 28.0, 144.0, 250.0, 176.0, 0.0, 0.0, 0.0, 1.7475027566261268E9, 0.0, 2025-05-17 10:25:56.626
82.0, 37103.29229870943, 21769.615622713045, -187500.02235174447, -187500.02235174447, 187500.0, -45694.90053592927, -187500.02235174447, -187500.02235174447, 0.074, 0.914, -0.17, 192.0, 0.0, 0.0, 0.0, 0.0, 0.0, 0.0, 0.0, 0.0, 0.0, 1.7475027566422236E9, 0.0, 2025-05-17 10:25:56.642
114.0, 30817.266502054514, 20821.566381641198, -187500.02235174447, -187500.02235174447, 187500.0, -44865.583761404014, -187500.02235174447, -187500.02235174447, 0.074, 0.914, -0.17, 192.0, 0.0, 0.0, 0.0, 0.0, 0.0, 0.0, 0.0, 0.0, 0.0, 1.747502756690466E9, 0.0, 2025-05-17 10:25:56.690
88.0, 31841.937523119155, 20646.954553956337, -187500.02235174447, -187500.02235174447, 187500.0, -44860.26404622365, -187500.02235174447, -187500.02235174447, 0.074, 0.914, -0.17, 192.0, 0.0, 0.0, 0.0, 0.0, 0.0, 0.0, 0.0, 0.0, 0.0, 1.7475027567156186E9, 0.0, 2025-05-17 10:25:56.715
89.0, 30945.52081173907, 20780.282709632243, -187500.02235174447, -187500.02235174447, 187500.0, -44831.09501970947, -187500.02235174447, -187500.02235174447, 0.074, 0.914, -0.17, 192.0, 0.0, 0.0, 0.0, 0.0, 0.0, 0.0, 0.0, 0.0, 0.0, 1.747502756715652E9, 0.0, 2025-05-17 10:25:56.715
91.0, 37621.517493905725, 21565.544195836093, -187500.02235174447, -187500.02235174447, 187500.0, -45841.103296411435, -187500.02235174447, -187500.02235174447, 0.082, 0.916, -0.176, 192.0, 2.0, 144.0, 28.0, 160.0, 250.0, 128.0, 0.0, 0.0, 0.0, 1.7475027567317388E9, 0.0, 2025-05-17 10:25:56.731
165.0, 34355.0559109516, 21482.64157565136, -187500.02235174447, -187500.02235174447, 187500.0, -45391.94499158204, -187500.02235174447, -187500.02235174447, 0.082, 0.916, -0.176, 192.0, 0.0, 0.0, 0.0, 0.0, 0.0, 0.0, 0.0, 0.0, 0.0, 1.7475027568442357E9, 0.0, 2025-05-17 10:25:56.844
160.0, 31017.716946329707, 20891.773210975316, -187500.02235174447, -187500.02235174447, 187500.0, -44850.04929900757, -187500.02235174447, -187500.02235174447, 0.082, 0.916, -0.176, 192.0, 0.0, 0.0, 0.0, 0.0, 0.0, 0.0, 0.0, 0.0, 0.0, 1.747502756860503E9, 0.0, 2025-05-17 10:25:56.860
181.0, 31377.06594193768, 20931.67107482804, -187500.02235174447, -187500.02235174447, 187500.0, -44967.597123098036, -187500.02235174447, -187500.02235174447, 0.082, 0.916, -0.176, 192.0, 0.0, 0.0, 0.0, 0.0, 0.0, 0.0, 0.0, 0.0, 0.0, 1.7475027569246252E9, 0.0, 2025-05-17 10:25:56.924
184.0, 31906.690526806182, 20726.14678456149, -187500.02235174447, -187500.02235174447, 187500.0, -44901.257145554686, -187500.02235174447, -187500.02235174447, 0.082, 0.916, -0.176, 192.0, 0.0, 0.0, 0.0, 0.0, 0.0, 0.0, 0.0, 0.0, 0.0, 1.747502756988941E9, 0.0, 2025-05-17 10:25:56.988
185.0, 30994.739353029654, 20868.37093453061, -187500.02235174447, -187500.02235174447, 187500.0, -44855.90545605486, -187500.02235174447, -187500.02235174447, 0.082, 0.916, -0.176, 192.0, 0.0, 0.0, 0.0, 0.0, 0.0, 0.0, 0.0, 0.0, 0.0, 1.7475027570361657E9, 0.0, 2025-05-17 10:25:57.036
186.0, 35213.45230501322, 21572.85321627298, -187500.02235174447, -187500.02235174447, 187500.0, -45530.19053103811, -187500.02235174447, -187500.02235174447, 0.082, 0.916, -0.176, 192.0, 0.0, 0.0, 0.0, 0.0, 0.0, 0.0, 0.0, 0.0, 0.0, 1.7475027570361943E9, 0.0, 2025-05-17 10:25:57.036
188.0, 32705.787742827863, 20815.97844552737, -187500.02235174447, -187500.02235174447, 187500.0, -45008.9254985959, -187500.02235174447, -187500.02235174447, 0.082, 0.916, -0.176, 192.0, 0.0, 0.0, 0.0, 0.0, 0.0, 0.0, 0.0, 0.0, 0.0, 1.7475027570945387E9, 0.0, 2025-05-17 10:25:57.094
189.0, 30760.381312415757, 20792.240892915834, -187500.02235174447, -187500.02235174447, 187500.0, -44783.2175830862, -187500.02235174447, -187500.02235174447, 0.082, 0.916, -0.176, 192.0, 0.0, 0.0, 0.0, 0.0, 0.0, 0.0, 0.0, 0.0, 0.0, 1.7475027570945745E9, 0.0, 2025-05-17 10:25:57.094
191.0, 37917.40988700508, 21756.5845556956, -187500.02235174447, -187500.02235174447, 187500.0, -45874.49680262766, -187500.02235174447, -187500.02235174447, 0.082, 0.916, -0.176, 192.0, 0.0, 0.0, 0.0, 0.0, 0.0, 0.0, 0.0, 0.0, 0.0, 1.7475027572231095E9, 0.0, 2025-05-17 10:25:57.223
193.0, 30658.837337355297, 20723.53163046022, -187500.02235174447, -187500.02235174447, 187500.0, -44749.64526291433, -187500.02235174447, -187500.02235174447, 0.082, 0.916, -0.176, 192.0, 0.0, 0.0, 0.0, 0.0, 0.0, 0.0, 0.0, 0.0, 0.0, 1.747502757351848E9, 0.0, 2025-05-17 10:25:57.351
200.0, 35648.14903118003, 21232.234982518552, -187500.02235174447, -187500.02235174447, 187500.0, -45510.90097557318, -187500.02235174447, -187500.02235174447, 0.082, 0.916, -0.176, 192.0, 0.0, 0.0, 0.0, 0.0, 0.0, 0.0, 0.0, 0.0, 0.0, 1.7475027574160979E9, 0.0, 2025-05-17 10:25:57.416
195.0, 37878.40609293057, 21787.251149088283, -187500.02235174447, -187500.02235174447, 187500.0, -45921.97190785073, -187500.02235174447, -187500.02235174447, 0.082, 0.916, -0.176, 192.0, 0.0, 0.0, 0.0, 0.0, 0.0, 0.0, 0.0, 0.0, 0.0, 1.7475027574321704E9, 0.0, 2025-05-17 10:25:57.432
195.0, 37878.40609293057, 21787.251149088283, -187500.02235174447, -187500.02235174447, 187500.0, -45921.97190785073, -187500.02235174447, -187500.02235174447, 0.082, 0.916, -0.176, 192.0, 0.0, 0.0, 0.0, 0.0, 0.0, 0.0, 0.0, 0.0, 0.0, 1.7475027574643102E9, 0.0, 2025-05-17 10:25:57.464
27.0, 37459.467346604746, 21637.38270251545, -187500.02235174447, -187500.02235174447, 187500.0, -45931.15847482187, -187500.02235174447, -187500.02235174447, 0.082, 0.916, -0.176, 192.0, 0.0, 0.0, 0.0, 0.0, 0.0, 0.0, 0.0, 0.0, 0.0, 1.74750275749646E9, 0.0, 2025-05-17 10:25:57.496
92.0, 31123.150124925392, 20920.405795622566, -187500.02235174447, -187500.02235174447, 187500.0, -45064.134307400505, -187500.02235174447, -187500.02235174447, 0.082, 0.916, -0.176, 192.0, 0.0, 0.0, 0.0, 0.0, 0.0, 0.0, 0.0, 0.0, 0.0, 1.7475027577858768E9, 0.0, 2025-05-17 10:25:57.785
127.0, 37672.94885789738, 21728.086081515085, -187500.02235174447, -187500.02235174447, 187500.0, -46058.2728455392, -187500.02235174447, -187500.02235174447, 0.078, 0.916, -0.216, 192.0, 2.0, 112.0, 28.0, 160.0, 249.0, 64.0, 0.0, 0.0, 0.0, 1.7475027579145267E9, 0.0, 2025-05-17 10:25:57.914
103.0, 33081.252346188114, 20820.962884540902, -187500.02235174447, -187500.02235174447, 187500.0, -45271.58084769021, -187500.02235174447, -187500.02235174447, 0.078, 0.916, -0.216, 192.0, 0.0, 0.0, 0.0, 0.0, 0.0, 0.0, 0.0, 0.0, 0.0, 1.7475027579466774E9, 0.0, 2025-05-17 10:25:57.946
168.0, 35486.85884319054, 21577.010640741664, -187500.02235174447, -187500.02235174447, 187500.0, -45729.97042297965, -187500.02235174447, -187500.02235174447, 0.078, 0.916, -0.216, 192.0, 0.0, 0.0, 0.0, 0.0, 0.0, 0.0, 0.0, 0.0, 0.0, 1.747502758011017E9, 0.0, 2025-05-17 10:25:58.011
77.0, 31875.331029335386, 20699.592912148586, -187500.02235174447, -187500.02235174447, 187500.0, -44935.298852360116, -187500.02235174447, -187500.02235174447, 0.078, 0.916, -0.216, 192.0, 0.0, 0.0, 0.0, 0.0, 0.0, 0.0, 0.0, 0.0, 0.0, 1.7475027586702766E9, 0.0, 2025-05-17 10:25:58.670
88.0, 38111.244214921506, 21761.434884242404, -187500.02235174447, -187500.02235174447, 187500.0, -46047.78987738966, -187500.02235174447, -187500.02235174447, 0.078, 0.916, -0.216, 192.0, 0.0, 0.0, 0.0, 0.0, 0.0, 0.0, 0.0, 0.0, 0.0, 1.7475027587346058E9, 0.0, 2025-05-17 10:25:58.734
94.0, 31080.95003139377, 20663.2266239198, -187500.02235174447, -187500.02235174447, 187500.0, -44862.63333113591, -187500.02235174447, -187500.02235174447, 0.078, 0.916, -0.216, 192.0, 0.0, 0.0, 0.0, 0.0, 0.0, 0.0, 0.0, 0.0, 0.0, 1.7475027588311372E9, 0.0, 2025-05-17 10:25:58.831
118.0, 35451.520735206694, 21154.048580413888, -187500.02235174447, -187500.02235174447, 187500.0, -45567.31677857838, -187500.02235174447, -187500.02235174447, 0.078, 0.916, -0.216, 192.0, 0.0, 0.0, 0.0, 0.0, 0.0, 0.0, 0.0, 0.0, 0.0, 1.7475027588471816E9, 0.0, 2025-05-17 10:25:58.847
116.0, 32874.49870997652, 21173.76281902347, -187500.02235174447, -187500.02235174447, 187500.0, -45262.126059785616, -187500.02235174447, -187500.02235174447, 0.078, 0.916, -0.216, 192.0, 0.0, 0.0, 0.0, 0.0, 0.0, 0.0, 0.0, 0.0, 0.0, 1.747502758863208E9, 0.0, 2025-05-17 10:25:58.863
116.0, 32874.49870997652, 21173.76281902347, -187500.02235174447, -187500.02235174447, 187500.0, -45262.126059785616, -187500.02235174447, -187500.02235174447, 0.078, 0.916, -0.216, 192.0, 0.0, 0.0, 0.0, 0.0, 0.0, 0.0, 0.0, 0.0, 0.0, 1.7475027588793216E9, 0.0, 2025-05-17 10:25:58.879
122.0, 36382.783816192605, 21315.808155036946, -187500.02235174447, -187500.02235174447, 187500.0, -45716.67113502874, -187500.02235174447, -187500.02235174447, 0.068, 0.91, -0.226, 192.0, 2.0, 32.0, 28.0, 112.0, 248.0, 240.0, 0.0, 0.0, 0.0, 1.74750275891147E9, 0.0, 2025-05-17 10:25:58.911
124.0, 31596.06833411078, 20914.05790019726, -187500.02235174447, -187500.02235174447, 187500.0, -45039.323871055116, -187500.02235174447, -187500.02235174447, 0.068, 0.91, -0.226, 192.0, 0.0, 0.0, 0.0, 0.0, 0.0, 0.0, 0.0, 0.0, 0.0, 1.747502758927561E9, 0.0, 2025-05-17 10:25:58.927
126.0, 37179.98113393559, 21474.282023225074, -187500.02235174447, -187500.02235174447, 187500.0, -45866.78545079058, -187500.02235174447, -187500.02235174447, 0.068, 0.91, -0.226, 192.0, 0.0, 0.0, 0.0, 0.0, 0.0, 0.0, 0.0, 0.0, 0.0, 1.7475027589758193E9, 0.0, 2025-05-17 10:25:58.975
129.0, 35368.01461792167, 21515.990378378676, -187500.02235174447, -187500.02235174447, 187500.0, -45704.511786045055, -187500.02235174447, -187500.02235174447, 0.068, 0.91, -0.226, 192.0, 0.0, 0.0, 0.0, 0.0, 0.0, 0.0, 0.0, 0.0, 0.0, 1.7475027590561907E9, 0.0, 2025-05-17 10:25:59.056
129.0, 35368.01461792167, 21515.990378378676, -187500.02235174447, -187500.02235174447, 187500.0, -45704.511786045055, -187500.02235174447, -187500.02235174447, 0.068, 0.91, -0.226, 192.0, 0.0, 0.0, 0.0, 0.0, 0.0, 0.0, 0.0, 0.0, 0.0, 1.7475027591024015E9, 0.0, 2025-05-17 10:25:59.102
135.0, 33716.13129569665, 20887.615786506627, -187500.02235174447, -187500.02235174447, 187500.0, -45294.84901366819, -187500.02235174447, -187500.02235174447, 0.068, 0.91, -0.226, 192.0, 0.0, 0.0, 0.0, 0.0, 0.0, 0.0, 0.0, 0.0, 0.0, 1.747502759102437E9, 0.0, 2025-05-17 10:25:59.102
135.0, 33716.13129569665, 20887.615786506627, -187500.02235174447, -187500.02235174447, 187500.0, -45294.84901366819, -187500.02235174447, -187500.02235174447, 0.068, 0.91, -0.226, 192.0, 0.0, 0.0, 0.0, 0.0, 0.0, 0.0, 0.0, 0.0, 0.0, 1.7475027591345775E9, 0.0, 2025-05-17 10:25:59.134
133.0, 34375.2618879392, 21387.42314427175, -187500.02235174447, -187500.02235174447, 187500.0, -45521.696868145096, -187500.02235174447, -187500.02235174447, 0.068, 0.91, -0.226, 192.0, 0.0, 0.0, 0.0, 0.0, 0.0, 0.0, 0.0, 0.0, 0.0, 1.7475027591988964E9, 0.0, 2025-05-17 10:25:59.198
133.0, 34375.2618879392, 21387.42314427175, -187500.02235174447, -187500.02235174447, 187500.0, -45521.696868145096, -187500.02235174447, -187500.02235174447, 0.068, 0.91, -0.226, 192.0, 0.0, 0.0, 0.0, 0.0, 0.0, 0.0, 0.0, 0.0, 0.0, 1.7475027592310767E9, 0.0, 2025-05-17 10:25:59.231
144.0, 31107.50390380668, 20616.757347197217, -187500.02235174447, -187500.02235174447, 187500.0, -44902.21827056626, -187500.02235174447, -187500.02235174447, 0.068, 0.91, -0.226, 192.0, 0.0, 0.0, 0.0, 0.0, 0.0, 0.0, 0.0, 0.0, 0.0, 1.747502759247152E9, 0.0, 2025-05-17 10:25:59.247
223.0, 31710.50926572195, 20577.21711125578, -187500.02235174447, -187500.02235174447, 187500.0, -45062.167353888435, -187500.02235174447, -187500.02235174447, 0.062, 0.914, -0.222, 192.0, 1.0, 240.0, 28.0, 144.0, 249.0, 16.0, 0.0, 0.0, 0.0, 1.7475027592632213E9, 0.0, 2025-05-17 10:25:59.263
223.0, 31710.50926572195, 20577.21711125578, -187500.02235174447, -187500.02235174447, 187500.0, -45062.167353888435, -187500.02235174447, -187500.02235174447, 0.062, 0.914, -0.222, 192.0, 1.0, 240.0, 28.0, 144.0, 249.0, 16.0, 0.0, 0.0, 0.0, 1.7475027592632656E9, 0.0, 2025-05-17 10:25:59.263
141.0, 32629.143611090614, 21093.207132006544, -187500.02235174447, -187500.02235174447, 187500.0, -45254.14648701507, -187500.02235174447, -187500.02235174447, 0.062, 0.914, -0.222, 192.0, 0.0, 0.0, 0.0, 0.0, 0.0, 0.0, 0.0, 0.0, 0.0, 1.7475027593275373E9, 0.0, 2025-05-17 10:25:59.327
24.0, 37870.962962026955, 21693.19500842035, -187500.02235174447, -187500.02235174447, 187500.0, -46057.93756937237, -187500.02235174447, -187500.02235174447, 0.062, 0.914, -0.222, 192.0, 0.0, 0.0, 0.0, 0.0, 0.0, 0.0, 0.0, 0.0, 0.0, 1.747502759456175E9, 0.0, 2025-05-17 10:25:59.456
3.0, 37664.34343628209, 21683.33788911556, -187500.02235174447, -187500.02235174447, 187500.0, -46052.48374372527, -187500.02235174447, -187500.02235174447, 0.062, 0.914, -0.222, 192.0, 0.0, 0.0, 0.0, 0.0, 0.0, 0.0, 0.0, 0.0, 0.0, 1.747502759536558E9, 0.0, 2025-05-17 10:25:59.536
22.0, 30845.34029309038, 20666.065295465625, -187500.02235174447, -187500.02235174447, 187500.0, -44915.38344805044, -187500.02235174447, -187500.02235174447, 0.062, 0.914, -0.222, 192.0, 0.0, 0.0, 0.0, 0.0, 0.0, 0.0, 0.0, 0.0, 0.0, 1.74750275958481E9, 0.0, 2025-05-17 10:25:59.584
73.0, 33342.63364584847, 21239.655761677714, -187500.02235174447, -187500.02235174447, 187500.0, -45363.67003484607, -187500.02235174447, -187500.02235174447, 0.062, 0.914, -0.222, 192.0, 0.0, 0.0, 0.0, 0.0, 0.0, 0.0, 0.0, 0.0, 0.0, 1.7475027596169553E9, 0.0, 2025-05-17 10:25:59.616
213.0, 37482.690809093816, 21621.825888374555, -187500.02235174447, -187500.02235174447, 187500.0, -46015.44690316283, -187500.02235174447, -187500.02235174447, 0.068, 0.906, -0.218, 192.0, 2.0, 32.0, 28.0, 80.0, 249.0, 48.0, 0.0, 0.0, 0.0, 1.747502759761661E9, 0.0, 2025-05-17 10:25:59.761
201.0, 37537.206713820306, 21477.21010174872, -187500.02235174447, -187500.02235174447, 187500.0, -45956.68416698983, -187500.02235174447, -187500.02235174447, 0.068, 0.906, -0.218, 192.0, 0.0, 0.0, 0.0, 0.0, 0.0, 0.0, 0.0, 0.0, 0.0, 1.747502759874248E9, 0.0, 2025-05-17 10:25:59.874
87.0, 37399.4305609978, 21540.197317623773, -187500.02235174447, -187500.02235174447, 187500.0, -45945.262425573164, -187500.02235174447, -187500.02235174447, 0.07, 0.912, -0.224, 192.0, 2.0, 48.0, 28.0, 128.0, 249.0, 0.0, 0.0, 0.0, 0.0, 1.7475027598903975E9, 0.0, 2025-05-17 10:25:59.890
87.0, 37399.4305609978, 21540.197317623773, -187500.02235174447, -187500.02235174447, 187500.0, -45945.262425573164, -187500.02235174447, -187500.02235174447, 0.07, 0.912, -0.224, 192.0, 2.0, 48.0, 28.0, 128.0, 249.0, 0.0, 0.0, 0.0, 0.0, 1.747502759922508E9, 0.0, 2025-05-17 10:25:59.922
130.0, 31530.577722856728, 20657.683391294886, -187500.02235174447, -187500.02235174447, 187500.0, -44959.23757067175, -187500.02235174447, -187500.02235174447, 0.07, 0.912, -0.224, 192.0, 0.0, 0.0, 0.0, 0.0, 0.0, 0.0, 0.0, 0.0, 0.0, 1.7475027599707327E9, 0.0, 2025-05-17 10:25:59.970
130.0, 31530.577722856728, 20657.683391294886, -187500.02235174447, -187500.02235174447, 187500.0, -44959.23757067175, -187500.02235174447, -187500.02235174447, 0.07, 0.912, -0.224, 192.0, 0.0, 0.0, 0.0, 0.0, 0.0, 0.0, 0.0, 0.0, 0.0, 1.7475027600029216E9, 0.0, 2025-05-17 10:26:00.002
52.0, 32721.836295346773, 21115.201248550566, -187500.02235174447, -187500.02235174447, 187500.0, -45262.50603944135, -187500.02235174447, -187500.02235174447, 0.07, 0.912, -0.224, 192.0, 0.0, 0.0, 0.0, 0.0, 0.0, 0.0, 0.0, 0.0, 0.0, 1.7475027600833104E9, 0.0, 2025-05-17 10:26:00.083
219.0, 32790.27733686892, 21154.38385658072, -187500.02235174447, -187500.02235174447, 187500.0, -45262.327225485715, -187500.02235174447, -187500.02235174447, 0.07, 0.912, -0.224, 192.0, 0.0, 0.0, 0.0, 0.0, 0.0, 0.0, 0.0, 0.0, 0.0, 1.7475027602923393E9, 0.0, 2025-05-17 10:26:00.292
159.0, 32218.0056235797, 20721.38586299251, -187500.02235174447, -187500.02235174447, 187500.0, -45050.41033630494, -187500.02235174447, -187500.02235174447, 0.07, 0.912, -0.224, 192.0, 0.0, 0.0, 0.0, 0.0, 0.0, 0.0, 0.0, 0.0, 0.0, 1.7475027603566413E9, 0.0, 2025-05-17 10:26:00.356
217.0, 34447.145098107474, 20997.072279104268, -187500.02235174447, -187500.02235174447, 187500.0, -45429.71943971151, -187500.02235174447, -187500.02235174447, 0.07, 0.912, -0.224, 192.0, 0.0, 0.0, 0.0, 0.0, 0.0, 0.0, 0.0, 0.0, 0.0, 1.7475027603887799E9, 0.0, 2025-05-17 10:26:00.388
4.0, 30903.320718207447, 20758.62386925505, -187500.02235174447, -187500.02235174447, 187500.0, -44908.2532415692, -187500.02235174447, -187500.02235174447, 0.07, 0.912, -0.224, 192.0, 0.0, 0.0, 0.0, 0.0, 0.0, 0.0, 0.0, 0.0, 0.0, 1.7475027604049304E9, 0.0, 2025-05-17 10:26:00.404
215.0, 33614.92259680302, 21282.63816626527, -187500.02235174447, -187500.02235174447, 187500.0, -45403.85847137672, -187500.02235174447, -187500.02235174447, 0.07, 0.912, -0.224, 192.0, 0.0, 0.0, 0.0, 0.0, 0.0, 0.0, 0.0, 0.0, 0.0, 1.7475027604370337E9, 0.0, 2025-05-17 10:26:00.437
178.0, 30980.188367389248, 20592.013966085193, -187500.02235174447, -187500.02235174447, 187500.0, -44952.75556477971, -187500.02235174447, -187500.02235174447, 0.07, 0.912, -0.224, 192.0, 0.0, 0.0, 0.0, 0.0, 0.0, 0.0, 0.0, 0.0, 0.0, 1.747502762109337E9, 0.0, 2025-05-17 10:26:02.109
193.0, 36888.246165304925, 21273.652764994236, -187500.02235174447, -187500.02235174447, 187500.0, -45856.43659310778, -187500.02235174447, -187500.02235174447, 0.07, 0.912, -0.224, 192.0, 0.0, 0.0, 0.0, 0.0, 0.0, 0.0, 0.0, 0.0, 0.0, 1.7475027621576223E9, 0.0, 2025-05-17 10:26:02.157
222.0, 37659.67192169093, 21491.78343913358, -187500.02235174447, -187500.02235174447, 187500.0, -45987.61898131597, -187500.02235174447, -187500.02235174447, 0.07, 0.912, -0.224, 192.0, 0.0, 0.0, 0.0, 0.0, 0.0, 0.0, 0.0, 0.0, 0.0, 1.7475027624149413E9, 0.0, 2025-05-17 10:26:02.414
48.0, 32810.93034874563, 21008.337558309744, -187500.02235174447, -187500.02235174447, 187500.0, -45204.99500095785, -187500.02235174447, -187500.02235174447, 0.07, 0.912, -0.224, 192.0, 0.0, 0.0, 0.0, 0.0, 0.0, 0.0, 0.0, 0.0, 0.0, 1.7475027626148663E9, 0.0, 2025-05-17 10:26:02.614
6.0, 31914.22306468762, 20865.3758007736, -187500.02235174447, -187500.02235174447, 187500.0, -45082.32862738713, -187500.02235174447, -187500.02235174447, 0.07, 0.912, -0.224, 192.0, 0.0, 0.0, 0.0, 0.0, 0.0, 0.0, 0.0, 0.0, 0.0, 1.747502762614898E9, 0.0, 2025-05-17 10:26:02.614
46.0, 34521.68816586592, 20861.911280383025, -187500.02235174447, -187500.02235174447, 187500.0, -45392.12380553768, -187500.02235174447, -187500.02235174447, 0.07, 0.912, -0.224, 192.0, 0.0, 0.0, 0.0, 0.0, 0.0, 0.0, 0.0, 0.0, 0.0, 1.747502762646982E9, 0.0, 2025-05-17 10:26:02.646
35.0, 31304.914510835948, 20725.185659549912, -187500.02235174447, -187500.02235174447, 187500.0, -44961.18217243936, -187500.02235174447, -187500.02235174447, 0.07, 0.912, -0.224, 192.0, 0.0, 0.0, 0.0, 0.0, 0.0, 0.0, 0.0, 0.0, 0.0, 1.7475027626791334E9, 0.0, 2025-05-17 10:26:02.679
38.0, 32688.50984436391, 20618.210210586814, -187500.02235174447, -187500.02235174447, 187500.0, -45085.30140939968, -187500.02235174447, -187500.02235174447, 0.07, 0.912, -0.224, 192.0, 0.0, 0.0, 0.0, 0.0, 0.0, 0.0, 0.0, 0.0, 0.0, 1.747502762759572E9, 0.0, 2025-05-17 10:26:02.759
29.0, 36192.97280227814, 21139.51994651794, -187500.02235174447, -187500.02235174447, 187500.0, -45697.716855730636, -187500.02235174447, -187500.02235174447, 0.07, 0.912, -0.224, 192.0, 0.0, 0.0, 0.0, 0.0, 0.0, 0.0, 0.0, 0.0, 0.0, 1.7475027627916837E9, 0.0, 2025-05-17 10:26:02.791
109.0, 32547.11270893964, 20609.425975015878, -187500.02235174447, -187500.02235174447, 187500.0, -45082.4403861094, -187500.02235174447, -187500.02235174447, 0.07, 0.912, -0.224, 192.0, 0.0, 0.0, 0.0, 0.0, 0.0, 0.0, 0.0, 0.0, 0.0, 1.7475027629203093E9, 0.0, 2025-05-17 10:26:02.920
154.0, 37349.362653417906, 21428.259781391596, -187500.02235174447, -187500.02235174447, 187500.0, -45974.833783487535, -187500.02235174447, -187500.02235174447, 0.074, 0.92, -0.218, 192.0, 2.0, 80.0, 28.0, 192.0, 249.0, 48.0, 0.0, 0.0, 0.0, 1.7475027630650513E9, 0.0, 2025-05-17 10:26:03.065
229.0, 31280.685219846397, 21111.647321182172, -187500.02235174447, -187500.02235174447, 187500.0, -39917.6227948216, -187500.02235174447, -187500.02235174447, 0.074, 0.92, -0.218, 192.0, 0.0, 0.0, 0.0, 0.0, 0.0, 0.0, 0.0, 0.0, 0.0, 1.7475027652036588E9, 0.0, 2025-05-17 10:26:05.203
248.0, 33513.3115665092, 21047.78838727336, -187500.02235174447, -187500.02235174447, 187500.0, -39926.16116120353, -187500.02235174447, -187500.02235174447, 0.074, 0.92, -0.218, 192.0, 0.0, 0.0, 0.0, 0.0, 0.0, 0.0, 0.0, 0.0, 0.0, 1.747502765288071E9, 0.0, 2025-05-17 10:26:05.288
249.0, 29510.628224686174, 20620.73595771026, -187500.02235174447, -187500.02235174447, 187500.0, -39509.25642362314, -187500.02235174447, -187500.02235174447, 0.074, 0.92, -0.218, 192.0, 0.0, 0.0, 0.0, 0.0, 0.0, 0.0, 0.0, 0.0, 0.0, 1.7475027652881E9, 0.0, 2025-05-17 10:26:05.288
250.0, 31969.431873492227, 21264.242680578554, -187500.02235174447, -187500.02235174447, 187500.0, -39789.323781648134, -187500.02235174447, -187500.02235174447, 0.074, 0.92, -0.218, 192.0, 0.0, 0.0, 0.0, 0.0, 0.0, 0.0, 0.0, 0.0, 0.0, 1.7475027652881145E9, 0.0, 2025-05-17 10:26:05.288
251.0, 37522.722783413265, 22064.725704756464, -187500.02235174447, -187500.02235174447, 187500.0, -40391.47977727411, -187500.02235174447, -187500.02235174447, 0.074, 0.92, -0.218, 192.0, 0.0, 0.0, 0.0, 0.0, 0.0, 0.0, 0.0, 0.0, 0.0, 1.7475027652881277E9, 0.0, 2025-05-17 10:26:05.288
252.0, 34678.86563287564, 21260.57699448788, -187500.02235174447, -187500.02235174447, 187500.0, -40019.36793558216, -187500.02235174447, -187500.02235174447, 0.074, 0.92, -0.218, 192.0, 0.0, 0.0, 0.0, 0.0, 0.0, 0.0, 0.0, 0.0, 0.0, 1.747502765304138E9, 0.0, 2025-05-17 10:26:05.304
5.0, 30816.081859598384, 20708.0865750416, -187500.02235174447, -187500.02235174447, 187500.0, -39394.9496024787, -187500.02235174447, -187500.02235174447, 0.074, 0.92, -0.218, 192.0, 0.0, 0.0, 0.0, 0.0, 0.0, 0.0, 0.0, 0.0, 0.0, 1.7475027653845398E9, 0.0, 2025-05-17 10:26:05.384
6.0, 29969.688352309273, 20859.36318151512, -187500.02235174447, -187500.02235174447, 187500.0, -39347.83212516691, -187500.02235174447, -187500.02235174447, 0.074, 0.92, -0.218, 192.0, 0.0, 0.0, 0.0, 0.0, 0.0, 0.0, 0.0, 0.0, 0.0, 1.747502765384578E9, 0.0, 2025-05-17 10:26:05.384
8.0, 37397.173034807805, 21861.771865102277, -187500.02235174447, -187500.02235174447, 187500.0, -40187.22953644151, -187500.02235174447, -187500.02235174447, 0.074, 0.92, -0.218, 192.0, 0.0, 0.0, 0.0, 0.0, 0.0, 0.0, 0.0, 0.0, 0.0, 1.7475027654006252E9, 0.0, 2025-05-17 10:26:05.400
10.0, 29680.836758713336, 20762.088389645625, -187500.02235174447, -187500.02235174447, 187500.0, -39274.63016207578, -187500.02235174447, -187500.02235174447, 0.074, 0.92, -0.218, 192.0, 0.0, 0.0, 0.0, 0.0, 0.0, 0.0, 0.0, 0.0, 0.0, 1.7475027654408696E9, 0.0, 2025-05-17 10:26:05.440
11.0, 33782.56068021783, 21616.640283660923, -187500.02235174447, -187500.02235174447, 187500.0, -39757.09256614358, -187500.02235174447, -187500.02235174447, 0.074, 0.92, -0.218, 192.0, 0.0, 0.0, 0.0, 0.0, 0.0, 0.0, 0.0, 0.0, 0.0, 1.7475027654409044E9, 0.0, 2025-05-17 10:26:05.440
12.0, 37746.77666983326, 22006.387651728113, -187500.02235174447, -187500.02235174447, 187500.0, -40190.02350449842, -187500.02235174447, -187500.02235174447, 0.074, 0.92, -0.218, 192.0, 0.0, 0.0, 0.0, 0.0, 0.0, 0.0, 0.0, 0.0, 0.0, 1.7475027654409196E9, 0.0, 2025-05-17 10:26:05.440
57.0, 34132.09726000992, 21658.639211492446, -187500.02235174447, -187500.02235174447, 187500.0, -39661.538858597145, -187500.02235174447, -187500.02235174447, 0.074, 0.92, -0.218, 192.0, 0.0, 0.0, 0.0, 0.0, 0.0, 0.0, 0.0, 0.0, 0.0, 1.747502765585542E9, 0.0, 2025-05-17 10:26:05.585
98.0, 30436.616293980635, 21000.089764605735, -187500.02235174447, -187500.02235174447, 187500.0, -38994.76396975088, -187500.02235174447, -187500.02235174447, 0.074, 0.92, -0.218, 192.0, 0.0, 0.0, 0.0, 0.0, 0.0, 0.0, 0.0, 0.0, 0.0, 1.7475027657302675E9, 0.0, 2025-05-17 10:26:05.730
103.0, 34592.498492300336, 21772.186073325407, -187500.02235174447, -187500.02235174447, 187500.0, -39536.257330925146, -187500.02235174447, -187500.02235174447, 0.074, 0.92, -0.218, 192.0, 0.0, 0.0, 0.0, 0.0, 0.0, 0.0, 0.0, 0.0, 0.0, 1.7475027657945898E9, 0.0, 2025-05-17 10:26:05.794
113.0, 33919.44276326213, 21197.589778612826, -187500.02235174447, -187500.02235174447, 187500.0, -39381.627962783336, -187500.02235174447, -187500.02235174447, 0.074, 0.92, -0.218, 192.0, 0.0, 0.0, 0.0, 0.0, 0.0, 0.0, 0.0, 0.0, 0.0, 1.7475027658589413E9, 0.0, 2025-05-17 10:26:05.858
129.0, 37206.669116815225, 21896.104144585628, -187500.02235174447, -187500.02235174447, 187500.0, -39873.05341637772, -187500.02235174447, -187500.02235174447, 0.074, 0.92, -0.218, 192.0, 0.0, 0.0, 0.0, 0.0, 0.0, 0.0, 0.0, 0.0, 0.0, 1.7475027659875493E9, 0.0, 2025-05-17 10:26:05.987
130.0, 32117.35571829745, 20887.213455106434, -187500.02235174447, -187500.02235174447, 187500.0, -39170.13575674722, -187500.02235174447, -187500.02235174447, 0.04, 0.912, -0.166, 192.0, 1.0, 64.0, 28.0, 128.0, 250.0, 208.0, 0.0, 0.0, 0.0, 1.747502766015722E9, 0.0, 2025-05-17 10:26:06.015
130.0, 32117.35571829745, 20887.213455106434, -187500.02235174447, -187500.02235174447, 187500.0, -39170.13575674722, -187500.02235174447, -187500.02235174447, 0.04, 0.912, -0.166, 192.0, 1.0, 64.0, 28.0, 128.0, 250.0, 208.0, 0.0, 0.0, 0.0, 1.7475027660157983E9, 0.0, 2025-05-17 10:26:06.015
137.0, 37156.17652609069, 22054.086274395737, -187500.02235174447, -187500.02235174447, 187500.0, -39883.75990197181, -187500.02235174447, -187500.02235174447, 0.04, 0.912, -0.166, 192.0, 0.0, 0.0, 0.0, 0.0, 0.0, 0.0, 0.0, 0.0, 0.0, 1.7475027660639253E9, 0.0, 2025-05-17 10:26:06.063
167.0, 35425.033918027155, 21512.749375432657, -187500.02235174447, -187500.02235174447, 187500.0, -39692.585431645566, -187500.02235174447, -187500.02235174447, 0.04, 0.912, -0.166, 192.0, 0.0, 0.0, 0.0, 0.0, 0.0, 0.0, 0.0, 0.0, 0.0, 1.747502766176505E9, 0.0, 2025-05-17 10:26:06.176
35.0, 34984.63749702424, 21871.964260573895, -187500.02235174447, -187500.02235174447, 187500.0, -39831.59093041312, -187500.02235174447, -187500.02235174447, 0.052000000000000005, 0.914, -0.234, 192.0, 1.0, 160.0, 28.0, 144.0, 248.0, 176.0, 0.0, 0.0, 0.0, 1.7475027666428752E9, 0.0, 2025-05-17 10:26:06.642
50.0, 30240.815012552146, 20923.33387414621, -187500.02235174447, -187500.02235174447, 187500.0, -39043.334310452265, -187500.02235174447, -187500.02235174447, 0.052000000000000005, 0.914, -0.234, 192.0, 0.0, 0.0, 0.0, 0.0, 0.0, 0.0, 0.0, 0.0, 0.0, 1.7475027667232127E9, 0.0, 2025-05-17 10:26:06.723
77.0, 36167.760034532555, 21960.11954070563, -187500.02235174447, -187500.02235174447, 187500.0, -40089.32889572727, -187500.02235174447, -187500.02235174447, 0.052000000000000005, 0.914, -0.234, 192.0, 0.0, 0.0, 0.0, 0.0, 0.0, 0.0, 0.0, 0.0, 0.0, 1.7475027668357725E9, 0.0, 2025-05-17 10:26:06.835
130.0, 30430.558971233248, 21105.83586762379, -187500.02235174447, -187500.02235174447, 187500.0, -39252.03254843147, -187500.02235174447, -187500.02235174447, 0.052000000000000005, 0.914, -0.234, 192.0, 0.0, 0.0, 0.0, 0.0, 0.0, 0.0, 0.0, 0.0, 0.0, 1.747502766932262E9, 0.0, 2025-05-17 10:26:06.932
140.0, 36924.031308177866, 21950.083607445195, -187500.02235174447, -187500.02235174447, 187500.0, -40343.26706448401, -187500.02235174447, -187500.02235174447, 0.052000000000000005, 0.914, -0.234, 192.0, 0.0, 0.0, 0.0, 0.0, 0.0, 0.0, 0.0, 0.0, 0.0, 1.747502767012652E9, 0.0, 2025-05-17 10:26:07.012
242.0, 30121.322586694074, 20859.40788500403, -187500.02235174447, -187500.02235174447, 187500.0, -39257.79929850093, -187500.02235174447, -187500.02235174447, 0.052000000000000005, 0.914, -0.234, 192.0, 0.0, 0.0, 0.0, 0.0, 0.0, 0.0, 0.0, 0.0, 0.0, 1.7475027673985367E9, 0.0, 2025-05-17 10:26:07.398
3.0, 29850.173574706743, 20879.055068380247, -187500.02235174447, -187500.02235174447, 187500.0, -39226.216283585585, -187500.02235174447, -187500.02235174447, 0.052000000000000005, 0.914, -0.234, 192.0, 0.0, 0.0, 0.0, 0.0, 0.0, 0.0, 0.0, 0.0, 0.0, 1.7475027674950228E9, 0.0, 2025-05-17 10:26:07.495
11.0, 30206.683898768893, 20815.41965191599, -187500.02235174447, -187500.02235174447, 187500.0, -39286.96832501511, -187500.02235174447, -187500.02235174447, 0.052000000000000005, 0.914, -0.234, 192.0, 0.0, 0.0, 0.0, 0.0, 0.0, 0.0, 0.0, 0.0, 0.0, 1.7475027675271883E9, 0.0, 2025-05-17 10:26:07.527
80.0, 36512.42393403339, 21963.20408144046, -187500.02235174447, -187500.02235174447, 187500.0, -40377.554640478455, -187500.02235174447, -187500.02235174447, 0.052000000000000005, 0.914, -0.234, 192.0, 0.0, 0.0, 0.0, 0.0, 0.0, 0.0, 0.0, 0.0, 0.0, 1.7475027678005228E9, 0.0, 2025-05-17 10:26:07.800
87.0, 30487.69003006101, 21146.158414621164, -187500.02235174447, -187500.02235174447, 187500.0, -39377.38113133683, -187500.02235174447, -187500.02235174447, 0.052000000000000005, 0.914, -0.234, 192.0, 0.0, 0.0, 0.0, 0.0, 0.0, 0.0, 0.0, 0.0, 0.0, 1.7475027678969963E9, 0.0, 2025-05-17 10:26:07.896
91.0, 30134.688929878346, 21054.65037282114, -187500.02235174447, -187500.02235174447, 187500.0, -39306.30258396895, -187500.02235174447, -187500.02235174447, 0.054, 0.894, -0.23, 192.0, 1.0, 176.0, 27.0, 240.0, 248.0, 208.0, 0.0, 0.0, 0.0, 1.7475027679452577E9, 0.0, 2025-05-17 10:26:07.945
126.0, 36682.74422678283, 21965.64042158609, -187500.02235174447, -187500.02235174447, 187500.0, -40419.28534737651, -187500.02235174447, -187500.02235174447, 0.054, 0.894, -0.23, 192.0, 0.0, 0.0, 0.0, 0.0, 0.0, 0.0, 0.0, 0.0, 0.0, 1.7475027680579877E9, 0.0, 2025-05-17 10:26:08.057
147.0, 36859.81474635777, 21958.711380804943, -187500.02235174447, -187500.02235174447, 187500.0, -40447.62735934584, -187500.02235174447, -187500.02235174447, 0.054, 0.894, -0.23, 192.0, 0.0, 0.0, 0.0, 0.0, 0.0, 0.0, 0.0, 0.0, 0.0, 1.7475027680739248E9, 0.0, 2025-05-17 10:26:08.073
165.0, 31880.8742619603, 20996.759354681893, -187500.02235174447, -187500.02235174447, 187500.0, -39569.539078419104, -187500.02235174447, -187500.02235174447, 0.054, 0.894, -0.23, 192.0, 0.0, 0.0, 0.0, 0.0, 0.0, 0.0, 0.0, 0.0, 0.0, 1.7475027681381936E9, 0.0, 2025-05-17 10:26:08.138
181.0, 35595.3542107766, 21570.238062171706, -187500.02235174447, -187500.02235174447, 187500.0, -40215.41508619965, -187500.02235174447, -187500.02235174447, 0.048, 0.908, -0.24, 192.0, 1.0, 128.0, 28.0, 96.0, 248.0, 128.0, 0.0, 0.0, 0.0, 1.747502768186457E9, 0.0, 2025-05-17 10:26:08.186
181.0, 35595.3542107766, 21570.238062171706, -187500.02235174447, -187500.02235174447, 187500.0, -40215.41508619965, -187500.02235174447, -187500.02235174447, 0.048, 0.908, -0.24, 192.0, 1.0, 128.0, 28.0, 96.0, 248.0, 128.0, 0.0, 0.0, 0.0, 1.7475027682185955E9, 0.0, 2025-05-17 10:26:08.218
189.0, 36724.94432031445, 21854.37343768757, -187500.02235174447, -187500.02235174447, 187500.0, -40424.00156545658, -187500.02235174447, -187500.02235174447, 0.048, 0.908, -0.24, 192.0, 0.0, 0.0, 0.0, 0.0, 0.0, 0.0, 0.0, 0.0, 0.0, 1.7475027682829356E9, 0.0, 2025-05-17 10:26:08.282
247.0, 36464.03240728765, 22003.347814482193, -187500.02235174447, -187500.02235174447, 187500.0, -40402.27566984602, -187500.02235174447, -187500.02235174447, 0.048, 0.908, -0.24, 192.0, 0.0, 0.0, 0.0, 0.0, 0.0, 0.0, 0.0, 0.0, 0.0, 1.747502768492038E9, 0.0, 2025-05-17 10:26:08.492
45.0, 35309.78832361559, 21844.8068910607, -187500.02235174447, -187500.02235174447, 187500.0, -40220.80185661338, -187500.02235174447, -187500.02235174447, 0.048, 0.908, -0.24, 192.0, 0.0, 0.0, 0.0, 0.0, 0.0, 0.0, 0.0, 0.0, 0.0, 1.7475027685562959E9, 0.0, 2025-05-17 10:26:08.556
48.0, 30184.443913035862, 21042.44632034854, -187500.02235174447, -187500.02235174447, 187500.0, -39353.8894479143, -187500.02235174447, -187500.02235174447, 0.048, 0.908, -0.24, 192.0, 0.0, 0.0, 0.0, 0.0, 0.0, 0.0, 0.0, 0.0, 0.0, 1.74750276858846E9, 0.0, 2025-05-17 10:26:08.588
49.0, 34384.26964095469, 21748.73909339179, -187500.02235174447, -187500.02235174447, 187500.0, -40069.54760188432, -187500.02235174447, -187500.02235174447, 0.048, 0.908, -0.24, 192.0, 0.0, 0.0, 0.0, 0.0, 0.0, 0.0, 0.0, 0.0, 0.0, 1.7475027686206183E9, 0.0, 2025-05-17 10:26:08.620
66.0, 35885.7704264844, 21934.19151713747, -187500.02235174447, -187500.02235174447, 187500.0, -40326.994994520544, -187500.02235174447, -187500.02235174447, 0.046, 0.906, -0.242, 192.0, 1.0, 112.0, 28.0, 80.0, 248.0, 112.0, 0.0, 0.0, 0.0, 1.7475027687331676E9, 0.0, 2025-05-17 10:26:08.733
73.0, 30140.902714836924, 21046.983724472968, -187500.02235174447, -187500.02235174447, 187500.0, -39351.274293813025, -187500.02235174447, -187500.02235174447, 0.046, 0.906, -0.242, 192.0, 0.0, 0.0, 0.0, 0.0, 0.0, 0.0, 0.0, 0.0, 0.0, 1.7475027687814088E9, 0.0, 2025-05-17 10:26:08.781
82.0, 32285.39613311245, 21441.827290275967, -187500.02235174447, -187500.02235174447, 187500.0, -39715.026583078696, -187500.02235174447, -187500.02235174447, 0.046, 0.906, -0.242, 192.0, 0.0, 0.0, 0.0, 0.0, 0.0, 0.0, 0.0, 0.0, 0.0, 1.747502768861863E9, 0.0, 2025-05-17 10:26:08.861
103.0, 32892.849492174326, 21513.285817299584, -187500.02235174447, -187500.02235174447, 187500.0, -39859.68707319344, -187500.02235174447, -187500.02235174447, 0.046, 0.906, -0.242, 192.0, 0.0, 0.0, 0.0, 0.0, 0.0, 0.0, 0.0, 0.0, 0.0, 1.7475027690226257E9, 0.0, 2025-05-17 10:26:09.022
155.0, 33621.583416650705, 21225.82003185988, -187500.02235174447, -187500.02235174447, 187500.0, -39926.22821643689, -187500.02235174447, -187500.02235174447, 0.046, 0.906, -0.242, 192.0, 0.0, 0.0, 0.0, 0.0, 0.0, 0.0, 0.0, 0.0, 0.0, 1.747502769167352E9, 0.0, 2025-05-17 10:26:09.167
166.0, 34853.99155068297, 21778.93630015091, -187500.02235174447, -187500.02235174447, 187500.0, -40221.31594673586, -187500.02235174447, -187500.02235174447, 0.046, 0.906, -0.242, 192.0, 0.0, 0.0, 0.0, 0.0, 0.0, 0.0, 0.0, 0.0, 0.0, 1.7475027692155464E9, 0.0, 2025-05-17 10:26:09.215
166.0, 34853.99155068297, 21778.93630015091, -187500.02235174447, -187500.02235174447, 187500.0, -40221.31594673586, -187500.02235174447, -187500.02235174447, 0.046, 0.906, -0.242, 192.0, 0.0, 0.0, 0.0, 0.0, 0.0, 0.0, 0.0, 0.0, 0.0, 1.7475027692618556E9, 0.0, 2025-05-17 10:26:09.261
167.0, 36130.209103847636, 21677.749953001734, -187500.02235174447, -187500.02235174447, 187500.0, -40414.05503917397, -187500.02235174447, -187500.02235174447, 0.046, 0.906, -0.252, 192.0, 1.0, 112.0, 28.0, 80.0, 248.0, 32.0, 0.0, 0.0, 0.0, 1.7475027692619092E9, 0.0, 2025-05-17 10:26:09.261
167.0, 36130.209103847636, 21677.749953001734, -187500.02235174447, -187500.02235174447, 187500.0, -40414.05503917397, -187500.02235174447, -187500.02235174447, 0.046, 0.906, -0.252, 192.0, 1.0, 112.0, 28.0, 80.0, 248.0, 32.0, 0.0, 0.0, 0.0, 1.7475027692939565E9, 0.0, 2025-05-17 10:26:09.293
172.0, 32039.415185381793, 21015.311302579797, -187500.02235174447, -187500.02235174447, 187500.0, -39654.27454164917, -187500.02235174447, -187500.02235174447, 0.046, 0.906, -0.252, 192.0, 0.0, 0.0, 0.0, 0.0, 0.0, 0.0, 0.0, 0.0, 0.0, 1.747502769326177E9, 0.0, 2025-05-17 10:26:09.326
185.0, 30319.649615246013, 20871.969565387913, -187500.02235174447, -187500.02235174447, 187500.0, -39402.03510547103, -187500.02235174447, -187500.02235174447, 0.046, 0.906, -0.252, 192.0, 0.0, 0.0, 0.0, 0.0, 0.0, 0.0, 0.0, 0.0, 0.0, 1.7475027693583214E9, 0.0, 2025-05-17 10:26:09.358
197.0, 32298.40484838544, 21042.468672092997, -187500.02235174447, -187500.02235174447, 187500.0, -39732.90797864294, -187500.02235174447, -187500.02235174447, 0.044, 0.9, -0.258, 192.0, 1.0, 96.0, 28.0, 32.0, 247.0, 240.0, 0.0, 0.0, 0.0, 1.7475027694708722E9, 0.0, 2025-05-17 10:26:09.470
186.0, 30801.910853613717, 21194.885217533734, -187500.02235174447, -187500.02235174447, 187500.0, -39521.57223481801, -187500.02235174447, -187500.02235174447, 0.044, 0.9, -0.258, 192.0, 0.0, 0.0, 0.0, 0.0, 0.0, 0.0, 0.0, 0.0, 0.0, 1.747502769502957E9, 0.0, 2025-05-17 10:26:09.502
195.0, 33665.37048403865, 21623.36815874197, -187500.02235174447, -187500.02235174447, 187500.0, -40035.483543334434, -187500.02235174447, -187500.02235174447, 0.044, 0.9, -0.258, 192.0, 0.0, 0.0, 0.0, 0.0, 0.0, 0.0, 0.0, 0.0, 0.0, 1.7475027696054764E9, 0.0, 2025-05-17 10:26:09.605
189.0, 30801.32970825788, 20895.930635444, -187500.02235174447, -187500.02235174447, 187500.0, -39450.15841128331, -187500.02235174447, -187500.02235174447, 0.044, 0.9, -0.258, 192.0, 0.0, 0.0, 0.0, 0.0, 0.0, 0.0, 0.0, 0.0, 0.0, 1.747502769605503E9, 0.0, 2025-05-17 10:26:09.605
190.0, 30347.701054537425, 21100.538504187884, -187500.02235174447, -187500.02235174447, 187500.0, -39417.94954752321, -187500.02235174447, -187500.02235174447, 0.044, 0.9, -0.258, 192.0, 0.0, 0.0, 0.0, 0.0, 0.0, 0.0, 0.0, 0.0, 0.0, 1.7475027696376565E9, 0.0, 2025-05-17 10:26:09.637
190.0, 30347.701054537425, 21100.538504187884, -187500.02235174447, -187500.02235174447, 187500.0, -39417.94954752321, -187500.02235174447, -187500.02235174447, 0.044, 0.9, -0.258, 192.0, 0.0, 0.0, 0.0, 0.0, 0.0, 0.0, 0.0, 0.0, 0.0, 1.74750276968991E9, 0.0, 2025-05-17 10:26:09.689
193.0, 31477.291164075275, 20971.256014258386, -187500.02235174447, -187500.02235174447, 187500.0, -39572.40010170938, -187500.02235174447, -187500.02235174447, 0.044, 0.9, -0.258, 192.0, 0.0, 0.0, 0.0, 0.0, 0.0, 0.0, 0.0, 0.0, 0.0, 1.747502769689946E9, 0.0, 2025-05-17 10:26:09.689
198.0, 29888.797389125513, 20937.683694086518, -187500.02235174447, -187500.02235174447, 187500.0, -39352.347177546886, -187500.02235174447, -187500.02235174447, 0.044, 0.9, -0.258, 192.0, 0.0, 0.0, 0.0, 0.0, 0.0, 0.0, 0.0, 0.0, 0.0, 1.7475027696899648E9, 0.0, 2025-05-17 10:26:09.689
223.0, 29861.90824054578, 20907.46413558294, -187500.02235174447, -187500.02235174447, 187500.0, -39341.014843108045, -187500.02235174447, -187500.02235174447, 0.044, 0.9, -0.258, 192.0, 0.0, 0.0, 0.0, 0.0, 0.0, 0.0, 0.0, 0.0, 0.0, 1.7475027696899805E9, 0.0, 2025-05-17 10:26:09.689
200.0, 36732.09687854015, 21894.986557362863, -187500.02235174447, -187500.02235174447, 187500.0, -40515.688421212246, -187500.02235174447, -187500.02235174447, 0.044, 0.9, -0.258, 192.0, 0.0, 0.0, 0.0, 0.0, 0.0, 0.0, 0.0, 0.0, 0.0, 1.74750276970599E9, 0.0, 2025-05-17 10:26:09.705
236.0, 30523.676338634057, 21141.866879685746, -187500.02235174447, -187500.02235174447, 187500.0, -39459.1661642988, -187500.02235174447, -187500.02235174447, 0.044, 0.9, -0.258, 192.0, 0.0, 0.0, 0.0, 0.0, 0.0, 0.0, 0.0, 0.0, 0.0, 1.7475027697381332E9, 0.0, 2025-05-17 10:26:09.738
202.0, 29907.48344749015, 20888.733373729396, -187500.02235174447, -187500.02235174447, 187500.0, -39338.9361308737, -187500.02235174447, -187500.02235174447, 0.044, 0.9, -0.258, 192.0, 0.0, 0.0, 0.0, 0.0, 0.0, 0.0, 0.0, 0.0, 0.0, 1.7475027697381654E9, 0.0, 2025-05-17 10:26:09.738
203.0, 31922.51556188054, 21372.84980688689, -187500.02235174447, -187500.02235174447, 187500.0, -39720.03337383668, -187500.02235174447, -187500.02235174447, 0.044, 0.9, -0.258, 192.0, 0.0, 0.0, 0.0, 0.0, 0.0, 0.0, 0.0, 0.0, 0.0, 1.7475027697703204E9, 0.0, 2025-05-17 10:26:09.770
11.0, 36657.26323810378, 21842.392902659525, -187500.02235174447, -187500.02235174447, 187500.0, -40505.58543271845, -187500.02235174447, -187500.02235174447, 0.042, 0.898, -0.256, 192.0, 1.0, 80.0, 28.0, 16.0, 248.0, 0.0, 0.0, 0.0, 0.0, 1.7475027698668735E9, 0.0, 2025-05-17 10:26:09.866
46.0, 30094.96987998127, 20832.474032935388, -187500.02235174447, -187500.02235174447, 187500.0, -39411.24402418661, -187500.02235174447, -187500.02235174447, 0.042, 0.898, -0.256, 192.0, 0.0, 0.0, 0.0, 0.0, 0.0, 0.0, 0.0, 0.0, 0.0, 1.7475027698828409E9, 0.0, 2025-05-17 10:26:09.882
243.0, 31951.79634711699, 20993.071316846766, -187500.02235174447, -187500.02235174447, 187500.0, -39665.89744876593, -187500.02235174447, -187500.02235174447, 0.042, 0.898, -0.256, 192.0, 0.0, 0.0, 0.0, 0.0, 0.0, 0.0, 0.0, 0.0, 0.0, 1.7475027699150443E9, 0.0, 2025-05-17 10:26:09.915
113.0, 29910.59033996944, 20905.765403004338, -187500.02235174447, -187500.02235174447, 187500.0, -39383.39375059531, -187500.02235174447, -187500.02235174447, 0.042, 0.898, -0.256, 192.0, 0.0, 0.0, 0.0, 0.0, 0.0, 0.0, 0.0, 0.0, 0.0, 1.747502769931095E9, 0.0, 2025-05-17 10:26:09.931
114.0, 31897.481608090595, 21406.95856892569, -187500.02235174447, -187500.02235174447, 187500.0, -39743.72622295931, -187500.02235174447, -187500.02235174447, 0.042, 0.898, -0.256, 192.0, 0.0, 0.0, 0.0, 0.0, 0.0, 0.0, 0.0, 0.0, 0.0, 1.7475027699793384E9, 0.0, 2025-05-17 10:26:09.979
115.0, 36501.762151928204, 21968.389686154092, -187500.02235174447, -187500.02235174447, 187500.0, -40511.64275546584, -187500.02235174447, -187500.02235174447, 0.042, 0.898, -0.256, 192.0, 0.0, 0.0, 0.0, 0.0, 0.0, 0.0, 0.0, 0.0, 0.0, 1.7475027700386195E9, 0.0, 2025-05-17 10:26:10.038
116.0, 34236.14463044937, 21341.289143715996, -187500.02235174447, -187500.02235174447, 187500.0, -40121.470704253996, -187500.02235174447, -187500.02235174447, 0.042, 0.898, -0.256, 192.0, 0.0, 0.0, 0.0, 0.0, 0.0, 0.0, 0.0, 0.0, 0.0, 1.747502770038658E9, 0.0, 2025-05-17 10:26:10.038
117.0, 30106.9057115204, 20886.878178939605, -187500.02235174447, -187500.02235174447, 187500.0, -39429.304233706505, -187500.02235174447, -187500.02235174447, 0.042, 0.898, -0.256, 192.0, 0.0, 0.0, 0.0, 0.0, 0.0, 0.0, 0.0, 0.0, 0.0, 1.7475027700869875E9, 0.0, 2025-05-17 10:26:10.086
117.0, 30106.9057115204, 20886.878178939605, -187500.02235174447, -187500.02235174447, 187500.0, -39429.304233706505, -187500.02235174447, -187500.02235174447, 0.042, 0.898, -0.256, 192.0, 0.0, 0.0, 0.0, 0.0, 0.0, 0.0, 0.0, 0.0, 0.0, 1.7475027701512203E9, 0.0, 2025-05-17 10:26:10.151
118.0, 31207.483256755266, 21291.489457069572, -187500.02235174447, -187500.02235174447, 187500.0, -39641.332881609545, -187500.02235174447, -187500.02235174447, 0.042, 0.898, -0.256, 192.0, 0.0, 0.0, 0.0, 0.0, 0.0, 0.0, 0.0, 0.0, 0.0, 1.7475027701773136E9, 0.0, 2025-05-17 10:26:10.177
119.0, 35980.00538110798, 21925.854316455643, -187500.02235174447, -187500.02235174447, 187500.0, -40447.69441457921, -187500.02235174447, -187500.02235174447, 0.042, 0.898, -0.256, 192.0, 0.0, 0.0, 0.0, 0.0, 0.0, 0.0, 0.0, 0.0, 0.0, 1.7475027701773446E9, 0.0, 2025-05-17 10:26:10.177
189.0, 31301.628804401018, 21312.79066953548, -187500.02235174447, -187500.02235174447, 187500.0, -39670.45720463481, -187500.02235174447, -187500.02235174447, 0.042, 0.898, -0.256, 192.0, 0.0, 0.0, 0.0, 0.0, 0.0, 0.0, 0.0, 0.0, 0.0, 1.7475027702416332E9, 0.0, 2025-05-17 10:26:10.241
190.0, 36052.60384709881, 21957.973773237918, -187500.02235174447, -187500.02235174447, 187500.0, -40450.86836229186, -187500.02235174447, -187500.02235174447, 0.042, 0.898, -0.256, 192.0, 0.0, 0.0, 0.0, 0.0, 0.0, 0.0, 0.0, 0.0, 0.0, 1.7475027702809591E9, 0.0, 2025-05-17 10:26:10.280
191.0, 35026.211741711115, 21493.415116478816, -187500.02235174447, -187500.02235174447, 187500.0, -40248.27215054895, -187500.02235174447, -187500.02235174447, 0.042, 0.898, -0.256, 192.0, 0.0, 0.0, 0.0, 0.0, 0.0, 0.0, 0.0, 0.0, 0.0, 1.7475027702810059E9, 0.0, 2025-05-17 10:26:10.281
192.0, 30429.240218310384, 20886.431144050497, -187500.02235174447, -187500.02235174447, 187500.0, -39492.93965017077, -187500.02235174447, -187500.02235174447, 0.052000000000000005, 0.9, -0.254, 192.0, 1.0, 160.0, 28.0, 32.0, 248.0, 16.0, 0.0, 0.0, 0.0, 1.7475027702810311E9, 0.0, 2025-05-17 10:26:10.281
193.0, 30738.431899360647, 21188.91730176417, -187500.02235174447, -187500.02235174447, 187500.0, -39586.034665827116, -187500.02235174447, -187500.02235174447, 0.052000000000000005, 0.9, -0.254, 192.0, 0.0, 0.0, 0.0, 0.0, 0.0, 0.0, 0.0, 0.0, 0.0, 1.7475027702810583E9, 0.0, 2025-05-17 10:26:10.281
195.0, 35824.72781237696, 21631.504193723704, -187500.02235174447, -187500.02235174447, 187500.0, -40398.07354188842, -187500.02235174447, -187500.02235174447, 0.052000000000000005, 0.9, -0.254, 192.0, 0.0, 0.0, 0.0, 0.0, 0.0, 0.0, 0.0, 0.0, 0.0, 1.7475027702969165E9, 0.0, 2025-05-17 10:26:10.296
197.0, 30331.96542644089, 21078.2761667104, -187500.02235174447, -187500.02235174447, 187500.0, -39526.131990686896, -187500.02235174447, -187500.02235174447, 0.052000000000000005, 0.9, -0.254, 192.0, 0.0, 0.0, 0.0, 0.0, 0.0, 0.0, 0.0, 0.0, 0.0, 1.7475027706647203E9, 0.0, 2025-05-17 10:26:10.664
198.0, 34449.24616208627, 21761.010201097753, -187500.02235174447, -187500.02235174447, 187500.0, -40224.512246192964, -187500.02235174447, -187500.02235174447, 0.052000000000000005, 0.9, -0.254, 192.0, 0.0, 0.0, 0.0, 0.0, 0.0, 0.0, 0.0, 0.0, 0.0, 1.74750277066475E9, 0.0, 2025-05-17 10:26:10.664
16.0, 30068.03602791262, 20987.326918521754, -187500.02235174447, -187500.02235174447, 187500.0, -39488.96103965772, -187500.02235174447, -187500.02235174447, 0.052000000000000005, 0.9, -0.254, 192.0, 0.0, 0.0, 0.0, 0.0, 0.0, 0.0, 0.0, 0.0, 0.0, 1.7475027708416119E9, 0.0, 2025-05-17 10:26:10.841
109.0, 34392.696248614346, 21743.06175030014, -187500.02235174447, -187500.02235174447, 187500.0, -40202.29461220439, -187500.02235174447, -187500.02235174447, 0.052000000000000005, 0.9, -0.254, 192.0, 0.0, 0.0, 0.0, 0.0, 0.0, 0.0, 0.0, 0.0, 0.0, 1.747502771114977E9, 0.0, 2025-05-17 10:26:11.114
111.0, 31732.61514098825, 20965.95865082248, -187500.02235174447, -187500.02235174447, 187500.0, -39718.155827302435, -187500.02235174447, -187500.02235174447, 0.052000000000000005, 0.9, -0.254, 192.0, 0.0, 0.0, 0.0, 0.0, 0.0, 0.0, 0.0, 0.0, 0.0, 1.747502771356136E9, 0.0, 2025-05-17 10:26:11.356
195.0, 30187.08141888159, 20780.752096265805, -187500.02235174447, -187500.02235174447, 187500.0, -39483.88719366636, -187500.02235174447, -187500.02235174447, 0.052000000000000005, 0.9, -0.254, 192.0, 0.0, 0.0, 0.0, 0.0, 0.0, 0.0, 0.0, 0.0, 0.0, 1.7475027714043808E9, 0.0, 2025-05-17 10:26:11.404
197.0, 35855.34970228073, 21825.6514460625, -187500.02235174447, -187500.02235174447, 187500.0, -40463.608856631385, -187500.02235174447, -187500.02235174447, 0.052000000000000005, 0.9, -0.254, 192.0, 0.0, 0.0, 0.0, 0.0, 0.0, 0.0, 0.0, 0.0, 0.0, 1.7475027714365778E9, 0.0, 2025-05-17 10:26:11.436
198.0, 35180.215261008176, 21416.256894619095, -187500.02235174447, -187500.02235174447, 187500.0, -40306.49844485503, -187500.02235174447, -187500.02235174447, 0.044, 0.898, -0.264, 192.0, 1.0, 96.0, 28.0, 16.0, 247.0, 192.0, 0.0, 0.0, 0.0, 1.7475027715491028E9, 0.0, 2025-05-17 10:26:11.549
199.0, 30562.724836197478, 20788.329337636154, -187500.02235174447, -187500.02235174447, 187500.0, -39518.577101061004, -187500.02235174447, -187500.02235174447, 0.044, 0.898, -0.264, 192.0, 0.0, 0.0, 0.0, 0.0, 0.0, 0.0, 0.0, 0.0, 0.0, 1.747502771565229E9, 0.0, 2025-05-17 10:26:11.565
199.0, 30562.724836197478, 20788.329337636154, -187500.02235174447, -187500.02235174447, 187500.0, -39518.577101061004, -187500.02235174447, -187500.02235174447, 0.044, 0.898, -0.264, 192.0, 0.0, 0.0, 0.0, 0.0, 0.0, 0.0, 0.0, 0.0, 0.0, 1.7475027716134157E9, 0.0, 2025-05-17 10:26:11.613
200.0, 30656.11042453175, 21059.388942645663, -187500.02235174447, -187500.02235174447, 187500.0, -39587.30871526107, -187500.02235174447, -187500.02235174447, 0.044, 0.898, -0.264, 192.0, 0.0, 0.0, 0.0, 0.0, 0.0, 0.0, 0.0, 0.0, 0.0, 1.747502771629516E9, 0.0, 2025-05-17 10:26:11.629
155.0, 34856.36083559523, 21352.308553732462, -187500.02235174447, -187500.02235174447, 187500.0, -40123.86234091072, -187500.02235174447, -187500.02235174447, 0.044, 0.898, -0.264, 192.0, 0.0, 0.0, 0.0, 0.0, 0.0, 0.0, 0.0, 0.0, 0.0, 1.7475027721762211E9, 0.0, 2025-05-17 10:26:12.176
233.0, 34561.854250652104, 21673.34665934404, -187500.02235174447, -187500.02235174447, 187500.0, -40083.00335204641, -187500.02235174447, -187500.02235174447, 0.038, 0.896, -0.28200000000000003, 192.0, 1.0, 48.0, 28.0, 0.0, 247.0, 48.0, 0.0, 0.0, 0.0, 1.7475027724817572E9, 0.0, 2025-05-17 10:26:12.481
42.0, 30392.8739300816, 20737.456767255877, -187500.02235174447, -187500.02235174447, 187500.0, -39371.212049867165, -187500.02235174447, -187500.02235174447, 0.038, 0.896, -0.28200000000000003, 192.0, 0.0, 0.0, 0.0, 0.0, 0.0, 0.0, 0.0, 0.0, 0.0, 1.7475027733341112E9, 0.0, 2025-05-17 10:26:13.334
23.0, 34889.24025168899, 21670.41858082039, -187500.02235174447, -187500.02235174447, 187500.0, -40160.8768297287, -187500.02235174447, -187500.02235174447, 0.038, 0.896, -0.28200000000000003, 192.0, 0.0, 0.0, 0.0, 0.0, 0.0, 0.0, 0.0, 0.0, 0.0, 1.747502773430406E9, 0.0, 2025-05-17 10:26:13.430
212.0, 35443.630569413974, 21456.646496849837, -187500.02235174447, -187500.02235174447, 187500.0, -40367.51870721802, -187500.02235174447, -187500.02235174447, 0.038, 0.896, -0.28200000000000003, 192.0, 0.0, 0.0, 0.0, 0.0, 0.0, 0.0, 0.0, 0.0, 0.0, 1.7475027734786377E9, 0.0, 2025-05-17 10:26:13.478
52.0, 35575.684675655924, 21517.622055723914, -187500.02235174447, -187500.02235174447, 187500.0, -40476.326999226454, -187500.02235174447, -187500.02235174447, 0.038, 0.896, -0.28200000000000003, 192.0, 0.0, 0.0, 0.0, 0.0, 0.0, 0.0, 0.0, 0.0, 0.0, 1.7475027739288616E9, 0.0, 2025-05-17 10:26:13.928
54.0, 30395.10910452713, 21012.517334522883, -187500.02235174447, -187500.02235174447, 187500.0, -39602.038514857115, -187500.02235174447, -187500.02235174447, 0.038, 0.896, -0.28200000000000003, 192.0, 0.0, 0.0, 0.0, 0.0, 0.0, 0.0, 0.0, 0.0, 0.0, 1.7475027740152962E9, 0.0, 2025-05-17 10:26:14.015
54.0, 30395.10910452713, 21012.517334522883, -187500.02235174447, -187500.02235174447, 187500.0, -39602.038514857115, -187500.02235174447, -187500.02235174447, 0.038, 0.896, -0.28200000000000003, 192.0, 0.0, 0.0, 0.0, 0.0, 0.0, 0.0, 0.0, 0.0, 0.0, 1.7475027740153391E9, 0.0, 2025-05-17 10:26:14.015
54.0, 35681.96722054091, 21731.595305394567, -187500.02235174447, -187500.02235174447, 187500.0, -40528.138342873855, -187500.02235174447, -187500.02235174447, 0.038, 0.896, -0.28200000000000003, 192.0, 0.0, 0.0, 0.0, 0.0, 0.0, 0.0, 0.0, 0.0, 0.0, 1.7475027748675265E9, 0.0, 2025-05-17 10:26:14.867
91.0, 32950.248771935556, 21411.138345138832, -187500.02235174447, -187500.02235174447, 187500.0, -40063.64674134812, -187500.02235174447, -187500.02235174447, 0.038, 0.896, -0.28200000000000003, 192.0, 0.0, 0.0, 0.0, 0.0, 0.0, 0.0, 0.0, 0.0, 0.0, 1.747502775002267E9, 0.0, 2025-05-17 10:26:15.002
85.0, 31394.902634013015, 20790.67627080396, -187500.02235174447, -187500.02235174447, 187500.0, -39738.89824615696, -187500.02235174447, -187500.02235174447, 0.038, 0.896, -0.28200000000000003, 192.0, 0.0, 0.0, 0.0, 0.0, 0.0, 0.0, 0.0, 0.0, 0.0, 1.7475027750023067E9, 0.0, 2025-05-17 10:26:15.002
0.0, 36393.62441225343, 21746.97330557982, -187500.02235174447, -187500.02235174447, 187500.0, -40635.35966102596, -187500.02235174447, -187500.02235174447, 0.038, 0.896, -0.28200000000000003, 192.0, 0.0, 0.0, 0.0, 0.0, 0.0, 0.0, 0.0, 0.0, 0.0, 1.7475027750023255E9, 0.0, 2025-05-17 10:26:15.002
46.0, 36487.03235233216, 21734.00929379574, -187500.02235174447, -187500.02235174447, 187500.0, -40669.62488527595, -187500.02235174447, -187500.02235174447, 0.038, 0.896, -0.28200000000000003, 192.0, 0.0, 0.0, 0.0, 0.0, 0.0, 0.0, 0.0, 0.0, 0.0, 1.7475027752916305E9, 0.0, 2025-05-17 10:26:15.291
83.0, 34701.06091511976, 21663.53424352816, -187500.02235174447, -187500.02235174447, 187500.0, -40334.3710701908, -187500.02235174447, -187500.02235174447, 0.038, 0.896, -0.28200000000000003, 192.0, 0.0, 0.0, 0.0, 0.0, 0.0, 0.0, 0.0, 0.0, 0.0, 1.74750277529167E9, 0.0, 2025-05-17 10:26:15.291
50.0, 30290.972327109856, 20855.853957635638, -187500.02235174447, -187500.02235174447, 187500.0, -39614.93547140783, -187500.02235174447, -187500.02235174447, 0.038, 0.896, -0.28200000000000003, 192.0, 0.0, 0.0, 0.0, 0.0, 0.0, 0.0, 0.0, 0.0, 0.0, 1.747502776883484E9, 0.0, 2025-05-17 10:26:16.883
225.0, 30030.66391118335, 20643.75825449923, -187500.02235174447, -187500.02235174447, 187500.0, -39525.86376975343, -187500.02235174447, -187500.02235174447, 0.038, 0.896, -0.28200000000000003, 192.0, 0.0, 0.0, 0.0, 0.0, 0.0, 0.0, 0.0, 0.0, 0.0, 1.7475027777035828E9, 0.0, 2025-05-17 10:26:17.703
223.0, 36363.695426427774, 21552.714294518744, -187500.02235174447, -187500.02235174447, 187500.0, -40672.55296379959, -187500.02235174447, -187500.02235174447, 0.038, 0.896, -0.28200000000000003, 192.0, 0.0, 0.0, 0.0, 0.0, 0.0, 0.0, 0.0, 0.0, 0.0, 1.747502778427183E9, 0.0, 2025-05-17 10:26:18.427
223.0, 36363.695426427774, 21552.714294518744, -187500.02235174447, -187500.02235174447, 187500.0, -40672.55296379959, -187500.02235174447, -187500.02235174447, 0.038, 0.896, -0.28200000000000003, 192.0, 0.0, 0.0, 0.0, 0.0, 0.0, 0.0, 0.0, 0.0, 0.0, 1.7475027785236616E9, 0.0, 2025-05-17 10:26:18.523
223.0, 36363.695426427774, 21552.714294518744, -187500.02235174447, -187500.02235174447, 187500.0, -40672.55296379959, -187500.02235174447, -187500.02235174447, 0.038, 0.896, -0.28200000000000003, 192.0, 0.0, 0.0, 0.0, 0.0, 0.0, 0.0, 0.0, 0.0, 0.0, 1.7475027786040573E9, 0.0, 2025-05-17 10:26:18.604
112.0, 36055.57662911137, 21390.574740239947, -187500.02235174447, -187500.02235174447, 187500.0, -37663.69523569289, -187500.02235174447, -187500.02235174447, 0.038, 0.896, -0.28200000000000003, 192.0, 0.0, 0.0, 0.0, 0.0, 0.0, 0.0, 0.0, 0.0, 0.0, 1.7475027791989844E9, 0.0, 2025-05-17 10:26:19.198
113.0, 32171.446939879293, 20592.639814929942, -187500.02235174447, -187500.02235174447, 187500.0, -36737.97538733189, -187500.02235174447, -187500.02235174447, 0.038, 0.896, -0.28200000000000003, 192.0, 0.0, 0.0, 0.0, 0.0, 0.0, 0.0, 0.0, 0.0, 0.0, 1.7475027792311416E9, 0.0, 2025-05-17 10:26:19.231
126.0, 30820.10517360034, 20740.898935901994, -187500.02235174447, -187500.02235174447, 187500.0, -35993.617593481256, -187500.02235174447, -187500.02235174447, 0.038, 0.896, -0.28200000000000003, 192.0, 0.0, 0.0, 0.0, 0.0, 0.0, 0.0, 0.0, 0.0, 0.0, 1.7475027794241076E9, 0.0, 2025-05-17 10:26:19.424
165.0, 32498.162388582517, 21724.755671591243, -187500.02235174447, -187500.02235174447, 187500.0, -36457.08101476205, -187500.02235174447, -187500.02235174447, 0.038, 0.896, -0.28200000000000003, 192.0, 0.0, 0.0, 0.0, 0.0, 0.0, 0.0, 0.0, 0.0, 0.0, 1.74750277946533E9, 0.0, 2025-05-17 10:26:19.465
195.0, 35555.94808530189, 22184.307537592358, -187500.02235174447, -187500.02235174447, 187500.0, -37309.3530308429, -187500.02235174447, -187500.02235174447, 0.038, 0.896, -0.28200000000000003, 192.0, 0.0, 0.0, 0.0, 0.0, 0.0, 0.0, 0.0, 0.0, 0.0, 1.7475027794653635E9, 0.0, 2025-05-17 10:26:19.465
163.0, 32705.832446316774, 21157.580156037828, -187500.02235174447, -187500.02235174447, 187500.0, -36516.246082335245, -187500.02235174447, -187500.02235174447, 0.038, 0.896, -0.28200000000000003, 192.0, 0.0, 0.0, 0.0, 0.0, 0.0, 0.0, 0.0, 0.0, 0.0, 1.7475027794653804E9, 0.0, 2025-05-17 10:26:19.465
192.0, 33687.54341453832, 21241.198032045133, -187500.02235174447, -187500.02235174447, 187500.0, -36849.778813097335, -187500.02235174447, -187500.02235174447, 0.038, 0.896, -0.28200000000000003, 192.0, 0.0, 0.0, 0.0, 0.0, 0.0, 0.0, 0.0, 0.0, 0.0, 1.7475027794813724E9, 0.0, 2025-05-17 10:26:19.481
148.0, 31447.093957316156, 21385.56794948196, -187500.02235174447, -187500.02235174447, 187500.0, -36179.695866071685, -187500.02235174447, -187500.02235174447, 0.038, 0.896, -0.28200000000000003, 192.0, 0.0, 0.0, 0.0, 0.0, 0.0, 0.0, 0.0, 0.0, 0.0, 1.7475027795879457E9, 0.0, 2025-05-17 10:26:19.587
161.0, 33241.53670567712, 21816.017844202262, -187500.02235174447, -187500.02235174447, 187500.0, -36707.733477083864, -187500.02235174447, -187500.02235174447, 0.198, 0.908, -0.32, 192.0, 6.0, 48.0, 28.0, 96.0, 246.0, 0.0, 0.0, 0.0, 0.0, 1.7475027795879807E9, 0.0, 2025-05-17 10:26:19.587
188.0, 32965.15738548725, 21082.79121909037, -187500.02235174447, -187500.02235174447, 187500.0, -36674.74230226783, -187500.02235174447, -187500.02235174447, 0.198, 0.908, -0.32, 192.0, 0.0, 0.0, 0.0, 0.0, 0.0, 0.0, 0.0, 0.0, 0.0, 1.7475027795880015E9, 0.0, 2025-05-17 10:26:19.588
188.0, 32965.15738548725, 21082.79121909037, -187500.02235174447, -187500.02235174447, 187500.0, -36674.74230226783, -187500.02235174447, -187500.02235174447, 0.198, 0.908, -0.32, 192.0, 0.0, 0.0, 0.0, 0.0, 0.0, 0.0, 0.0, 0.0, 0.0, 1.747502779620067E9, 0.0, 2025-05-17 10:26:19.620
138.0, 32545.279865894303, 21082.41123943463, -187500.02235174447, -187500.02235174447, 187500.0, -36335.01813829162, -187500.02235174447, -187500.02235174447, 0.198, 0.908, -0.32, 192.0, 0.0, 0.0, 0.0, 0.0, 0.0, 0.0, 0.0, 0.0, 0.0, 1.7475027796633096E9, 0.0, 2025-05-17 10:26:19.663
186.0, 33024.16599084926, 21711.09875572905, -187500.02235174447, -187500.02235174447, 187500.0, -36727.872398838095, -187500.02235174447, -187500.02235174447, 0.198, 0.908, -0.32, 192.0, 0.0, 0.0, 0.0, 0.0, 0.0, 0.0, 0.0, 0.0, 0.0, 1.7475027796633575E9, 0.0, 2025-05-17 10:26:19.663
248.0, 30624.460354383034, 21095.464658196528, -187500.02235174447, -187500.02235174447, 187500.0, -36222.72297414816, -187500.02235174447, -187500.02235174447, 0.198, 0.908, -0.32, 192.0, 0.0, 0.0, 0.0, 0.0, 0.0, 0.0, 0.0, 0.0, 0.0, 1.747502779679394E9, 0.0, 2025-05-17 10:26:19.679
184.0, 32248.269885572183, 20977.33568875023, -187500.02235174447, -187500.02235174447, 187500.0, -36447.44741290181, -187500.02235174447, -187500.02235174447, 0.198, 0.908, -0.32, 192.0, 0.0, 0.0, 0.0, 0.0, 0.0, 0.0, 0.0, 0.0, 0.0, 1.747502779723595E9, 0.0, 2025-05-17 10:26:19.723
246.0, 34625.02028048281, 21530.429605296806, -187500.02235174447, -187500.02235174447, 187500.0, -37255.75354763908, -187500.02235174447, -187500.02235174447, 0.198, 0.908, -0.32, 192.0, 0.0, 0.0, 0.0, 0.0, 0.0, 0.0, 0.0, 0.0, 0.0, 1.7475027797236288E9, 0.0, 2025-05-17 10:26:19.723
244.0, 31066.488452731188, 21218.019273044978, -187500.02235174447, -187500.02235174447, 187500.0, -36336.11337376993, -187500.02235174447, -187500.02235174447, 0.198, 0.908, -0.32, 192.0, 0.0, 0.0, 0.0, 0.0, 0.0, 0.0, 0.0, 0.0, 0.0, 1.7475027797236612E9, 0.0, 2025-05-17 10:26:19.723
180.0, 31617.146029132135, 20904.42429833702, -187500.02235174447, -187500.02235174447, 187500.0, -36330.078402766994, -187500.02235174447, -187500.02235174447, 0.198, 0.908, -0.32, 192.0, 0.0, 0.0, 0.0, 0.0, 0.0, 0.0, 0.0, 0.0, 0.0, 1.7475027797236793E9, 0.0, 2025-05-17 10:26:19.723
242.0, 33907.12695206725, 21321.396091150775, -187500.02235174447, -187500.02235174447, 187500.0, -37012.63362319871, -187500.02235174447, -187500.02235174447, 0.198, 0.908, -0.32, 192.0, 0.0, 0.0, 0.0, 0.0, 0.0, 0.0, 0.0, 0.0, 0.0, 1.7475027797236934E9, 0.0, 2025-05-17 10:26:19.723
240.0, 31594.324898043265, 21390.50768500658, -187500.02235174447, -187500.02235174447, 187500.0, -36402.520406546646, -187500.02235174447, -187500.02235174447, 0.198, 0.908, -0.32, 192.0, 0.0, 0.0, 0.0, 0.0, 0.0, 0.0, 0.0, 0.0, 0.0, 1.747502779723708E9, 0.0, 2025-05-17 10:26:19.723
178.0, 34615.43138211148, 22164.973278638518, -187500.02235174447, -187500.02235174447, 187500.0, -37043.166106124656, -187500.02235174447, -187500.02235174447, 0.198, 0.908, -0.32, 192.0, 0.0, 0.0, 0.0, 0.0, 0.0, 0.0, 0.0, 0.0, 0.0, 1.7475027797237227E9, 0.0, 2025-05-17 10:26:19.723
210.0, 30329.61849327308, 20803.126192465566, -187500.02235174447, -187500.02235174447, 187500.0, -35960.91699134314, -187500.02235174447, -187500.02235174447, 0.198, 0.908, -0.32, 192.0, 0.0, 0.0, 0.0, 0.0, 0.0, 0.0, 0.0, 0.0, 0.0, 1.7475027797237372E9, 0.0, 2025-05-17 10:26:19.723
238.0, 33130.24737003414, 21107.64635892467, -187500.02235174447, -187500.02235174447, 187500.0, -36756.817907907716, -187500.02235174447, -187500.02235174447, 0.198, 0.908, -0.32, 192.0, 0.0, 0.0, 0.0, 0.0, 0.0, 0.0, 0.0, 0.0, 0.0, 1.7475027797396796E9, 0.0, 2025-05-17 10:26:19.739
202.0, 30729.51355332298, 20965.779836866837, -187500.02235174447, -187500.02235174447, 187500.0, -36189.26241269856, -187500.02235174447, -187500.02235174447, 0.198, 0.908, -0.32, 192.0, 0.0, 0.0, 0.0, 0.0, 0.0, 0.0, 0.0, 0.0, 0.0, 1.7475027797558258E9, 0.0, 2025-05-17 10:26:19.755
202.0, 30729.51355332298, 20965.779836866837, -187500.02235174447, -187500.02235174447, 187500.0, -36189.26241269856, -187500.02235174447, -187500.02235174447, 0.198, 0.908, -0.32, 192.0, 0.0, 0.0, 0.0, 0.0, 0.0, 0.0, 0.0, 0.0, 0.0, 1.747502779803973E9, 0.0, 2025-05-17 10:26:19.803
8.0, 30201.83357022209, 20796.26420691779, -187500.02235174447, -187500.02235174447, 187500.0, -35972.0928635708, -187500.02235174447, -187500.02235174447, 0.198, 0.908, -0.32, 192.0, 0.0, 0.0, 0.0, 0.0, 0.0, 0.0, 0.0, 0.0, 0.0, 1.7475027798040125E9, 0.0, 2025-05-17 10:26:19.804
236.0, 32244.201868081316, 21566.8405970145, -187500.02235174447, -187500.02235174447, 187500.0, -36544.632797793485, -187500.02235174447, -187500.02235174447, 0.198, 0.908, -0.32, 192.0, 0.0, 0.0, 0.0, 0.0, 0.0, 0.0, 0.0, 0.0, 0.0, 1.7475027798040347E9, 0.0, 2025-05-17 10:26:19.804
208.0, 35965.990837334495, 22031.73452994043, -187500.02235174447, -187500.02235174447, 187500.0, -37357.744557588645, -187500.02235174447, -187500.02235174447, 0.198, 0.908, -0.32, 192.0, 0.0, 0.0, 0.0, 0.0, 0.0, 0.0, 0.0, 0.0, 0.0, 1.7475027798040528E9, 0.0, 2025-05-17 10:26:19.804
6.0, 35681.319019951705, 22197.807991243364, -187500.02235174447, -187500.02235174447, 187500.0, -37548.91902791489, -187500.02235174447, -187500.02235174447, 0.198, 0.908, -0.32, 192.0, 0.0, 0.0, 0.0, 0.0, 0.0, 0.0, 0.0, 0.0, 0.0, 1.7475027798040724E9, 0.0, 2025-05-17 10:26:19.804
4.0, 30138.10874678001, 20835.49151843685, -187500.02235174447, -187500.02235174447, 187500.0, -35981.41354100866, -187500.02235174447, -187500.02235174447, 0.198, 0.908, -0.32, 192.0, 0.0, 0.0, 0.0, 0.0, 0.0, 0.0, 0.0, 0.0, 0.0, 1.7475027798040924E9, 0.0, 2025-05-17 10:26:19.804
4.0, 30138.10874678001, 20835.49151843685, -187500.02235174447, -187500.02235174447, 187500.0, -35981.41354100866, -187500.02235174447, -187500.02235174447, 0.198, 0.908, -0.32, 192.0, 0.0, 0.0, 0.0, 0.0, 0.0, 0.0, 0.0, 0.0, 0.0, 1.7475027798472495E9, 0.0, 2025-05-17 10:26:19.847
215.0, 31978.931364885735, 21496.11967755791, -187500.02235174447, -187500.02235174447, 187500.0, -36307.03375423357, -187500.02235174447, -187500.02235174447, 0.198, 0.908, -0.32, 192.0, 0.0, 0.0, 0.0, 0.0, 0.0, 0.0, 0.0, 0.0, 0.0, 1.7475027798472872E9, 0.0, 2025-05-17 10:26:19.847
232.0, 33017.281653557024, 21739.10549153155, -187500.02235174447, -187500.02235174447, 187500.0, -36717.03180277727, -187500.02235174447, -187500.02235174447, 0.198, 0.908, -0.32, 192.0, 0.0, 0.0, 0.0, 0.0, 0.0, 0.0, 0.0, 0.0, 0.0, 1.7475027798974316E9, 0.0, 2025-05-17 10:26:19.897
2.0, 35778.97379147694, 22091.36898414719, -187500.02235174447, -187500.02235174447, 187500.0, -37582.156071919926, -187500.02235174447, -187500.02235174447, 0.198, 0.908, -0.32, 192.0, 0.0, 0.0, 0.0, 0.0, 0.0, 0.0, 0.0, 0.0, 0.0, 1.747502779897479E9, 0.0, 2025-05-17 10:26:19.897
223.0, 30862.037046198497, 21150.539356534406, -187500.02235174447, -187500.02235174447, 187500.0, -36116.10515309634, -187500.02235174447, -187500.02235174447, 0.198, 0.908, -0.32, 192.0, 0.0, 0.0, 0.0, 0.0, 0.0, 0.0, 0.0, 0.0, 0.0, 1.747502779897498E9, 0.0, 2025-05-17 10:26:19.897
13.0, 30928.175858041748, 21249.49052923805, -187500.02235174447, -187500.02235174447, 187500.0, -36259.692759477235, -187500.02235174447, -187500.02235174447, 0.198, 0.908, -0.32, 192.0, 0.0, 0.0, 0.0, 0.0, 0.0, 0.0, 0.0, 0.0, 0.0, 1.7475027798975136E9, 0.0, 2025-05-17 10:26:19.897
21.0, 30288.111303819576, 20975.547549193805, -187500.02235174447, -187500.02235174447, 187500.0, -36097.53085345398, -187500.02235174447, -187500.02235174447, 0.198, 0.908, -0.32, 192.0, 0.0, 0.0, 0.0, 0.0, 0.0, 0.0, 0.0, 0.0, 0.0, 1.7475027798975284E9, 0.0, 2025-05-17 10:26:19.897
11.0, 34117.9039022808, 21465.631898120868, -187500.02235174447, -187500.02235174447, 187500.0, -37046.83179221532, -187500.02235174447, -187500.02235174447, 0.198, 0.908, -0.32, 192.0, 0.0, 0.0, 0.0, 0.0, 0.0, 0.0, 0.0, 0.0, 0.0, 1.7475027798975434E9, 0.0, 2025-05-17 10:26:19.897
251.0, 31179.4094657194, 20805.40607040001, -187500.02235174447, -187500.02235174447, 187500.0, -36266.46533804719, -187500.02235174447, -187500.02235174447, 0.212, 0.894, -0.292, 192.0, 6.0, 160.0, 27.0, 240.0, 246.0, 224.0, 0.0, 0.0, 0.0, 1.7475027798975582E9, 0.0, 2025-05-17 10:26:19.897
19.0, 35362.33727483002, 21861.16836800198, -187500.02235174447, -187500.02235174447, 187500.0, -37467.53632635312, -187500.02235174447, -187500.02235174447, 0.212, 0.894, -0.292, 192.0, 0.0, 0.0, 0.0, 0.0, 0.0, 0.0, 0.0, 0.0, 0.0, 1.7475027799135485E9, 0.0, 2025-05-17 10:26:19.913
9.0, 31412.1134772436, 21426.89632497982, -187500.02235174447, -187500.02235174447, 187500.0, -36365.885897384396, -187500.02235174447, -187500.02235174447, 0.212, 0.894, -0.292, 192.0, 0.0, 0.0, 0.0, 0.0, 0.0, 0.0, 0.0, 0.0, 0.0, 1.7475027799456959E9, 0.0, 2025-05-17 10:26:19.945
24.0, 32043.594961594936, 20973.312374748275, -187500.02235174447, -187500.02235174447, 187500.0, -36442.17240121036, -187500.02235174447, -187500.02235174447, 0.212, 0.894, -0.292, 192.0, 0.0, 0.0, 0.0, 0.0, 0.0, 0.0, 0.0, 0.0, 0.0, 1.7475027799909394E9, 0.0, 2025-05-17 10:26:19.990
17.0, 30571.44201653505, 21105.433536223598, -187500.02235174447, -187500.02235174447, 187500.0, -36155.22070589312, -187500.02235174447, -187500.02235174447, 0.212, 0.894, -0.292, 192.0, 0.0, 0.0, 0.0, 0.0, 0.0, 0.0, 0.0, 0.0, 0.0, 1.7475027799909763E9, 0.0, 2025-05-17 10:26:19.990
22.0, 33287.82716844406, 21853.94875454292, -187500.02235174447, -187500.02235174447, 187500.0, -36943.65613980963, -187500.02235174447, -187500.02235174447, 0.212, 0.894, -0.292, 192.0, 0.0, 0.0, 0.0, 0.0, 0.0, 0.0, 0.0, 0.0, 0.0, 1.7475027799909997E9, 0.0, 2025-05-17 10:26:19.990
43.0, 33843.066852458345, 22064.725704756464, -187500.02235174447, -187500.02235174447, 187500.0, -37086.39437990122, -187500.02235174447, -187500.02235174447, 0.212, 0.894, -0.292, 192.0, 0.0, 0.0, 0.0, 0.0, 0.0, 0.0, 0.0, 0.0, 0.0, 1.7475027800070052E9, 0.0, 2025-05-17 10:26:20.007
61.0, 34585.480044541364, 21672.09496165454, -187500.02235174447, -187500.02235174447, 187500.0, -37124.25823500851, -187500.02235174447, -187500.02235174447, 0.212, 0.894, -0.292, 192.0, 0.0, 0.0, 0.0, 0.0, 0.0, 0.0, 0.0, 0.0, 0.0, 1.7475027800230825E9, 0.0, 2025-05-17 10:26:20.023
61.0, 34585.480044541364, 21672.09496165454, -187500.02235174447, -187500.02235174447, 187500.0, -37124.25823500851, -187500.02235174447, -187500.02235174447, 0.212, 0.894, -0.292, 192.0, 0.0, 0.0, 0.0, 0.0, 0.0, 0.0, 0.0, 0.0, 0.0, 1.7475027800803995E9, 0.0, 2025-05-17 10:26:20.080
58.0, 30274.14146353501, 20847.159129042524, -187500.02235174447, -187500.02235174447, 187500.0, -35959.151203531175, -187500.02235174447, -187500.02235174447, 0.212, 0.894, -0.292, 192.0, 0.0, 0.0, 0.0, 0.0, 0.0, 0.0, 0.0, 0.0, 0.0, 1.7475027800804455E9, 0.0, 2025-05-17 10:26:20.080
36.0, 34391.913937558405, 21576.921233763842, -187500.02235174447, -187500.02235174447, 187500.0, -37123.1629995302, -187500.02235174447, -187500.02235174447, 0.214, 0.896, -0.28400000000000003, 192.0, 6.0, 176.0, 28.0, 0.0, 247.0, 32.0, 0.0, 0.0, 0.0, 1.74750278008046E9, 0.0, 2025-05-17 10:26:20.080
56.0, 35486.18829085687, 22301.542437260443, -187500.02235174447, -187500.02235174447, 187500.0, -37461.23313441672, -187500.02235174447, -187500.02235174447, 0.182, 0.902, -0.278, 192.0, 5.0, 176.0, 28.0, 48.0, 247.0, 80.0, 0.0, 0.0, 0.0, 1.7475027800804725E9, 0.0, 2025-05-17 10:26:20.080
56.0, 35486.18829085687, 22301.542437260443, -187500.02235174447, -187500.02235174447, 187500.0, -37461.23313441672, -187500.02235174447, -187500.02235174447, 0.182, 0.902, -0.278, 192.0, 5.0, 176.0, 28.0, 48.0, 247.0, 80.0, 0.0, 0.0, 0.0, 1.7475027801265993E9, 0.0, 2025-05-17 10:26:20.126
46.0, 30214.618768050525, 21034.086767922257, -187500.02235174447, -187500.02235174447, 187500.0, -36059.7117018356, -187500.02235174447, -187500.02235174447, 0.216, 0.91, -0.28400000000000003, 192.0, 6.0, 192.0, 28.0, 112.0, 247.0, 32.0, 0.0, 0.0, 0.0, 1.74750278012664E9, 0.0, 2025-05-17 10:26:20.126
