Sample Index, EXG Channel 0, EXG Channel 1, EXG Channel 2, EXG Channel 3, EXG Channel 4, EXG Channel 5, EXG Channel 6, EXG Channel 7, Accel Channel 0, Accel Channel 1, Accel Channel 2, Not Used, Digital Channel 0 (D11), Digital Channel 1 (D12), Digital Channel 2 (D13), Digital Channel 3 (D17), Not Used.1, Digital Channel 4 (D18), Analog Channel 0, Analog Channel 1, Analog Channel 2, Timestamp, Marker Channel, Timestamp (Formatted)
15.0,604212.8925577274,603791.3386573003,604575.169631859,604250.7117093458,-750000.0894069779,-750000.0894069779,-750000.0894069779,-750000.0894069779,0.0,0.0,0.0,192.0,0.0,0.0,0.0,0.0,0.0,0.0,0.0,0.0,0.0,1747524686.7689877,0.0, 2025-05-17 16:31:26.768
16.0,604072.6130095259,603651.1485160766,604434.8006766797,604110.4321611443,-750000.0894069779,-750000.0894069779,-750000.0894069779,-750000.0894069779,0.0,0.0,0.0,192.0,0.0,0.0,0.0,0.0,0.0,0.0,0.0,0.0,0.0,1747524686.7690537,0.0, 2025-05-17 16:31:26.769
17.0,603918.8330076734,603497.6367351576,604281.0206748273,603956.8309732474,-750000.0894069779,-750000.0894069779,-750000.0894069779,-750000.0894069779,0.0,0.0,0.0,192.0,0.0,0.0,0.0,0.0,0.0,0.0,0.0,0.0,0.0,1747524686.7690952,0.0, 2025-05-17 16:31:26.769
18.0,603762.9072383532,603341.5321518817,604124.8266845735,603800.9052039272,-750000.0894069779,-750000.0894069779,-750000.0894069779,-750000.0894069779,0.0,0.0,0.0,192.0,0.0,0.0,0.0,0.0,0.0,0.0,0.0,0.0,0.0,1747524686.7691605,0.0, 2025-05-17 16:31:26.769
19.0,603614.9386900591,603193.3847896319,603977.036950235,603652.7578416774,-750000.0894069779,-750000.0894069779,-750000.0894069779,-750000.0894069779,0.0,0.0,0.0,192.0,0.0,0.0,0.0,0.0,0.0,0.0,0.0,0.0,0.0,1747524686.7692287,0.0, 2025-05-17 16:31:26.769
20.0,603454.900199759,603033.6145202655,603816.9984599351,603493.0769792887,-750000.0894069779,-750000.0894069779,-750000.0894069779,-750000.0894069779,-0.464,0.77,0.42,192.0,241.0,128.0,24.0,16.0,13.0,32.0,0.0,0.0,0.0,1747524686.7692938,0.0, 2025-05-17 16:31:26.769
21.0,603288.2455931003,602867.0493205845,603649.986225365,603326.1541516965,-750000.0894069779,-750000.0894069779,-750000.0894069779,-750000.0894069779,-0.464,0.77,0.42,192.0,0.0,0.0,0.0,0.0,0.0,0.0,0.0,0.0,0.0,1747524686.7693677,0.0, 2025-05-17 16:31:26.769
22.0,603121.859207375,602700.6629348592,603483.7786535954,603159.9465799269,-750000.0894069779,-750000.0894069779,-750000.0894069779,-750000.0894069779,-0.464,0.77,0.42,192.0,0.0,0.0,0.0,0.0,0.0,0.0,0.0,0.0,0.0,1747524686.7694347,0.0, 2025-05-17 16:31:26.769
23.0,602963.2512287202,602541.4291073596,603324.7236400513,603000.8915663828,-750000.0894069779,-750000.0894069779,-750000.0894069779,-750000.0894069779,-0.464,0.77,0.42,192.0,0.0,0.0,0.0,0.0,0.0,0.0,0.0,0.0,0.0,1747524686.7695017,0.0, 2025-05-17 16:31:26.769
24.0,602809.9182617568,602388.4537683075,603171.5694870437,602847.6480063973,-750000.0894069779,-750000.0894069779,-750000.0894069779,-750000.0894069779,-0.464,0.77,0.42,192.0,0.0,0.0,0.0,0.0,0.0,0.0,0.0,0.0,0.0,1747524686.769572,0.0, 2025-05-17 16:31:26.769
25.0,602650.8632482127,602229.5775687192,603012.5144734996,602688.4141788976,-750000.0894069779,-750000.0894069779,-750000.0894069779,-750000.0894069779,-0.464,0.77,0.42,192.0,0.0,0.0,0.0,0.0,0.0,0.0,0.0,0.0,0.0,1747524686.7696877,0.0, 2025-05-17 16:31:26.769
26.0,602489.3048392899,602068.0191597962,602851.2242855101,602527.0345839304,-750000.0894069779,-750000.0894069779,-750000.0894069779,-750000.0894069779,-0.464,0.77,0.42,192.0,0.0,0.0,0.0,0.0,0.0,0.0,0.0,0.0,0.0,1747524686.769728,0.0, 2025-05-17 16:31:26.769
27.0,602335.703651393,601914.5073788771,602696.9972487686,602373.2545820778,-750000.0894069779,-750000.0894069779,-750000.0894069779,-750000.0894069779,-0.464,0.77,0.42,192.0,0.0,0.0,0.0,0.0,0.0,0.0,0.0,0.0,0.0,1747524686.769794,0.0, 2025-05-17 16:31:26.769
28.0,602195.3346962136,601774.496051609,602556.8071075449,602233.153847832,-750000.0894069779,-750000.0894069779,-750000.0894069779,-750000.0894069779,-0.464,0.77,0.42,192.0,0.0,0.0,0.0,0.0,0.0,0.0,0.0,0.0,0.0,1747524686.7698965,0.0, 2025-05-17 16:31:26.769
29.0,602053.7140433448,601632.6071778068,602415.0970476982,602091.2649740297,-750000.0894069779,-750000.0894069779,-750000.0894069779,-750000.0894069779,-0.464,0.77,0.42,192.0,0.0,0.0,0.0,0.0,0.0,0.0,0.0,0.0,0.0,1747524686.7699685,0.0, 2025-05-17 16:31:26.769
30.0,601910.8416927864,601489.9136412041,602271.9564762064,601948.3032164936,-750000.0894069779,-750000.0894069779,-750000.0894069779,-750000.0894069779,-0.454,0.79,0.424,192.0,241.0,208.0,24.0,176.0,13.0,64.0,0.0,0.0,0.0,1747524686.7703407,0.0, 2025-05-17 16:31:26.770
31.0,601774.04901672,601352.942151182,602135.0743931622,601811.4211334493,-750000.0894069779,-750000.0894069779,-750000.0894069779,-750000.0894069779,-0.454,0.79,0.424,192.0,0.0,0.0,0.0,0.0,0.0,0.0,0.0,0.0,0.0,1747524686.7704182,0.0, 2025-05-17 16:31:26.770
32.0,601648.5216198589,601227.3253473432,602009.9046242124,601686.0725505439,-750000.0894069779,-750000.0894069779,-750000.0894069779,-750000.0894069779,-0.454,0.79,0.424,192.0,0.0,0.0,0.0,0.0,0.0,0.0,0.0,0.0,0.0,1747524686.7704637,0.0, 2025-05-17 16:31:26.770
33.0,601526.2128741995,601105.3742295951,601887.4170645972,601563.7638048844,-750000.0894069779,-750000.0894069779,-750000.0894069779,-750000.0894069779,-0.454,0.79,0.424,192.0,0.0,0.0,0.0,0.0,0.0,0.0,0.0,0.0,0.0,1747524686.7705195,0.0, 2025-05-17 16:31:26.770
34.0,601411.0566867657,600990.396856117,601772.2608771635,601448.8758383841,-750000.0894069779,-750000.0894069779,-750000.0894069779,-750000.0894069779,-0.454,0.79,0.424,192.0,0.0,0.0,0.0,0.0,0.0,0.0,0.0,0.0,0.0,1747524686.7705605,0.0, 2025-05-17 16:31:26.770
35.0,601304.483569203,600884.1813664653,601665.5983526228,601342.3027208212,-750000.0894069779,-750000.0894069779,-750000.0894069779,-750000.0894069779,-0.454,0.79,0.424,192.0,0.0,0.0,0.0,0.0,0.0,0.0,0.0,0.0,0.0,1747524686.7706003,0.0, 2025-05-17 16:31:26.770
36.0,601206.7617424442,600786.7277606402,601568.0553398199,601244.5808940626,-750000.0894069779,-750000.0894069779,-750000.0894069779,-750000.0894069779,-0.454,0.79,0.424,192.0,0.0,0.0,0.0,0.0,0.0,0.0,0.0,0.0,0.0,1747524686.770641,0.0, 2025-05-17 16:31:26.770
37.0,601098.4004853249,600678.1876895652,601459.6046757228,601136.3984508989,-750000.0894069779,-750000.0894069779,-750000.0894069779,-750000.0894069779,-0.454,0.79,0.424,192.0,0.0,0.0,0.0,0.0,0.0,0.0,0.0,0.0,0.0,1747524686.770682,0.0, 2025-05-17 16:31:26.770
38.0,600991.6485538064,600570.8993161797,601352.5845232707,601029.378298447,-750000.0894069779,-750000.0894069779,-750000.0894069779,-750000.0894069779,-0.454,0.79,0.424,192.0,0.0,0.0,0.0,0.0,0.0,0.0,0.0,0.0,0.0,1747524686.7707217,0.0, 2025-05-17 16:31:26.770
39.0,600887.6682386004,600467.276628885,601248.7830220202,600925.3979832409,-750000.0894069779,-750000.0894069779,-750000.0894069779,-750000.0894069779,-0.454,0.79,0.424,192.0,0.0,0.0,0.0,0.0,0.0,0.0,0.0,0.0,0.0,1747524686.7707613,0.0, 2025-05-17 16:31:26.770
40.0,600801.4799119807,600381.0883022653,601162.5946954006,600838.9414356877,-750000.0894069779,-750000.0894069779,-750000.0894069779,-750000.0894069779,-0.46,0.786,0.422,192.0,241.0,160.0,24.0,144.0,13.0,48.0,0.0,0.0,0.0,1747524686.7708397,0.0, 2025-05-17 16:31:26.770
41.0,600721.4606668307,600301.0690571152,601082.0390083836,600758.6539696043,-750000.0894069779,-750000.0894069779,-750000.0894069779,-750000.0894069779,-0.46,0.786,0.422,192.0,0.0,0.0,0.0,0.0,0.0,0.0,0.0,0.0,0.0,1747524686.7708838,0.0, 2025-05-17 16:31:26.770
42.0,600635.272340211,600214.8807304956,600995.7612747862,600672.7338639181,-750000.0894069779,-750000.0894069779,-750000.0894069779,-750000.0894069779,-0.46,0.786,0.422,192.0,0.0,0.0,0.0,0.0,0.0,0.0,0.0,0.0,0.0,1747524686.7709231,0.0, 2025-05-17 16:31:26.770
43.0,600543.6301879443,600123.4173921845,600904.6555643864,600581.1811186292,-750000.0894069779,-750000.0894069779,-750000.0894069779,-750000.0894069779,-0.46,0.786,0.422,192.0,0.0,0.0,0.0,0.0,0.0,0.0,0.0,0.0,0.0,1747524686.7709794,0.0, 2025-05-17 16:31:26.770
44.0,600472.1046056872,600052.1600308609,600833.3087960851,600509.9237573056,-750000.0894069779,-750000.0894069779,-750000.0894069779,-750000.0894069779,-0.46,0.786,0.422,192.0,0.0,0.0,0.0,0.0,0.0,0.0,0.0,0.0,0.0,1747524686.7710192,0.0, 2025-05-17 16:31:26.771
45.0,600393.6052791602,599973.571297356,600754.6306556023,600431.6032447342,-750000.0894069779,-750000.0894069779,-750000.0894069779,-750000.0894069779,-0.46,0.786,0.422,192.0,0.0,0.0,0.0,0.0,0.0,0.0,0.0,0.0,0.0,1747524686.771113,0.0, 2025-05-17 16:31:26.771
46.0,600315.9106154336,599895.7872266516,600676.7571779201,600353.4615461185,-750000.0894069779,-750000.0894069779,-750000.0894069779,-750000.0894069779,-0.46,0.786,0.422,192.0,0.0,0.0,0.0,0.0,0.0,0.0,0.0,0.0,0.0,1747524686.7711537,0.0, 2025-05-17 16:31:26.771
47.0,600230.9739865034,599810.7611907437,600591.9099559677,600268.5249171883,-750000.0894069779,-750000.0894069779,-750000.0894069779,-750000.0894069779,-0.46,0.786,0.422,192.0,0.0,0.0,0.0,0.0,0.0,0.0,0.0,0.0,0.0,1747524686.7711933,0.0, 2025-05-17 16:31:26.771
48.0,600151.4017762425,599730.8313525715,600512.1589317512,600188.9527069274,-750000.0894069779,-750000.0894069779,-750000.0894069779,-750000.0894069779,-0.46,0.786,0.422,192.0,0.0,0.0,0.0,0.0,0.0,0.0,0.0,0.0,0.0,1747524686.7712328,0.0, 2025-05-17 16:31:26.771
49.0,600061.9053914434,599641.6925956837,600422.6625469521,600099.4563221284,-750000.0894069779,-750000.0894069779,-750000.0894069779,-750000.0894069779,-0.46,0.786,0.422,192.0,0.0,0.0,0.0,0.0,0.0,0.0,0.0,0.0,0.0,1747524686.7712724,0.0, 2025-05-17 16:31:26.771
50.0,599970.620867088,599550.4080713282,600331.1098016632,600008.0823907951,-750000.0894069779,-750000.0894069779,-750000.0894069779,-750000.0894069779,-0.462,0.78,0.416,192.0,241.0,144.0,24.0,96.0,13.0,0.0,0.0,0.0,0.0,1747524686.7713113,0.0, 2025-05-17 16:31:26.771
51.0,599870.0380170391,599450.0040352349,600230.5269516143,599907.2313198127,-750000.0894069779,-750000.0894069779,-750000.0894069779,-750000.0894069779,-0.462,0.78,0.416,192.0,0.0,0.0,0.0,0.0,0.0,0.0,0.0,0.0,0.0,1747524686.7713532,0.0, 2025-05-17 16:31:26.771
52.0,599765.7000739217,599345.3978711842,600125.9207875634,599802.9827836732,-750000.0894069779,-750000.0894069779,-750000.0894069779,-750000.0894069779,-0.462,0.78,0.416,192.0,0.0,0.0,0.0,0.0,0.0,0.0,0.0,0.0,0.0,1747524686.7713995,0.0, 2025-05-17 16:31:26.771
53.0,599666.1007006288,599246.2455327804,600027.0366700932,599703.7410382916,-750000.0894069779,-750000.0894069779,-750000.0894069779,-750000.0894069779,-0.462,0.78,0.416,192.0,0.0,0.0,0.0,0.0,0.0,0.0,0.0,0.0,0.0,1747524686.7714424,0.0, 2025-05-17 16:31:26.771
54.0,599566.5907343138,599147.0037873988,599927.616110756,599604.4098859322,-750000.0894069779,-750000.0894069779,-750000.0894069779,-750000.0894069779,-0.462,0.78,0.416,192.0,0.0,0.0,0.0,0.0,0.0,0.0,0.0,0.0,0.0,1747524686.7714913,0.0, 2025-05-17 16:31:26.771
55.0,599451.2557329244,599031.1323441425,599811.565853544,599488.8066636093,-750000.0894069779,-750000.0894069779,-750000.0894069779,-750000.0894069779,-0.462,0.78,0.416,192.0,0.0,0.0,0.0,0.0,0.0,0.0,0.0,0.0,0.0,1747524686.7715485,0.0, 2025-05-17 16:31:26.771
56.0,599343.0732897607,598922.8604940011,599703.2045964247,599380.3559995122,-750000.0894069779,-750000.0894069779,-750000.0894069779,-750000.0894069779,-0.462,0.78,0.416,192.0,0.0,0.0,0.0,0.0,0.0,0.0,0.0,0.0,0.0,1747524686.771588,0.0, 2025-05-17 16:31:26.771
57.0,599237.2154280205,598817.3602601719,599597.3467346843,599274.4087307941,-750000.0894069779,-750000.0894069779,-750000.0894069779,-750000.0894069779,-0.462,0.78,0.416,192.0,0.0,0.0,0.0,0.0,0.0,0.0,0.0,0.0,0.0,1747524686.7716272,0.0, 2025-05-17 16:31:26.771
58.0,599121.3439847642,598701.7570378492,599481.7435123615,599158.6266945156,-750000.0894069779,-750000.0894069779,-750000.0894069779,-750000.0894069779,-0.462,0.78,0.416,192.0,0.0,0.0,0.0,0.0,0.0,0.0,0.0,0.0,0.0,1747524686.771679,0.0, 2025-05-17 16:31:26.771
59.0,598993.7602274133,598573.9944665426,599354.3385689663,599031.1323441425,-750000.0894069779,-750000.0894069779,-750000.0894069779,-750000.0894069779,-0.462,0.78,0.416,192.0,0.0,0.0,0.0,0.0,0.0,0.0,0.0,0.0,0.0,1747524686.7717185,0.0, 2025-05-17 16:31:26.771
60.0,598866.5340979736,598446.1424882582,599227.1124395266,598904.353249592,-750000.0894069779,-750000.0894069779,-750000.0894069779,-750000.0894069779,-0.46,0.786,0.416,192.0,241.0,160.0,24.0,144.0,13.0,0.0,0.0,0.0,0.0,1747524686.7717695,0.0, 2025-05-17 16:31:26.771
61.0,598746.5499337375,598326.247731,599106.5918334236,598784.1008644225,-750000.0894069779,-750000.0894069779,-750000.0894069779,-750000.0894069779,-0.46,0.786,0.416,192.0,0.0,0.0,0.0,0.0,0.0,0.0,0.0,0.0,0.0,1747524686.771812,0.0, 2025-05-17 16:31:26.771
62.0,598620.1284670983,598200.2732992498,598980.1703667844,598657.9476187167,-750000.0894069779,-750000.0894069779,-750000.0894069779,-750000.0894069779,-0.46,0.786,0.416,192.0,0.0,0.0,0.0,0.0,0.0,0.0,0.0,0.0,0.0,1747524686.7718513,0.0, 2025-05-17 16:31:26.771
63.0,598481.8158724089,598061.9607045604,598841.7683651171,598519.5456170494,-750000.0894069779,-750000.0894069779,-750000.0894069779,-750000.0894069779,-0.46,0.786,0.416,192.0,0.0,0.0,0.0,0.0,0.0,0.0,0.0,0.0,0.0,1747524686.77189,0.0, 2025-05-17 16:31:26.771
64.0,598334.2943590039,597914.2603771997,598694.1574447344,598371.7558827109,-750000.0894069779,-750000.0894069779,-750000.0894069779,-750000.0894069779,-0.46,0.786,0.416,192.0,0.0,0.0,0.0,0.0,0.0,0.0,0.0,0.0,0.0,1747524686.7719293,0.0, 2025-05-17 16:31:26.771
65.0,598184.4482641754,597764.6825033048,598544.758384795,598222.1780088161,-750000.0894069779,-750000.0894069779,-750000.0894069779,-750000.0894069779,-0.46,0.786,0.416,192.0,0.0,0.0,0.0,0.0,0.0,0.0,0.0,0.0,0.0,1747524686.7719748,0.0, 2025-05-17 16:31:26.771
66.0,598035.4068321475,597615.551664299,598395.3593248557,598072.6895418989,-750000.0894069779,-750000.0894069779,-750000.0894069779,-750000.0894069779,-0.46,0.786,0.416,192.0,0.0,0.0,0.0,0.0,0.0,0.0,0.0,0.0,0.0,1747524686.7721004,0.0, 2025-05-17 16:31:26.772
67.0,597876.8882604705,597457.1224995998,598236.5725322453,597914.1709702219,-750000.0894069779,-750000.0894069779,-750000.0894069779,-750000.0894069779,-0.46,0.786,0.416,192.0,0.0,0.0,0.0,0.0,0.0,0.0,0.0,0.0,0.0,1747524686.7721772,0.0, 2025-05-17 16:31:26.772
68.0,597702.0082118522,597282.6894858705,598062.139518516,597739.7379564927,-750000.0894069779,-750000.0894069779,-750000.0894069779,-750000.0894069779,-0.46,0.786,0.416,192.0,0.0,0.0,0.0,0.0,0.0,0.0,0.0,0.0,0.0,1747524686.7722385,0.0, 2025-05-17 16:31:26.772
69.0,597532.9396167923,597113.3526698771,597892.7132955448,597570.6693614328,-750000.0894069779,-750000.0894069779,-750000.0894069779,-750000.0894069779,-0.46,0.786,0.416,192.0,0.0,0.0,0.0,0.0,0.0,0.0,0.0,0.0,0.0,1747524686.772279,0.0, 2025-05-17 16:31:26.772
70.0,597360.5629635529,596941.423051527,597720.4260492834,597398.2927081934,-750000.0894069779,-750000.0894069779,-750000.0894069779,-750000.0894069779,-0.46,0.78,0.406,192.0,241.0,160.0,24.0,96.0,12.0,176.0,0.0,0.0,0.0,1747524686.7723444,0.0, 2025-05-17 16:31:26.772
71.0,597170.1261007936,596750.9861887677,597530.1680004797,597207.6770314786,-750000.0894069779,-750000.0894069779,-750000.0894069779,-750000.0894069779,-0.46,0.78,0.406,192.0,0.0,0.0,0.0,0.0,0.0,0.0,0.0,0.0,0.0,1747524686.772388,0.0, 2025-05-17 16:31:26.772
72.0,596968.2451448733,596549.1052328474,597328.1082306037,597005.7066685804,-750000.0894069779,-750000.0894069779,-750000.0894069779,-750000.0894069779,-0.46,0.78,0.406,192.0,0.0,0.0,0.0,0.0,0.0,0.0,0.0,0.0,0.0,1747524686.772427,0.0, 2025-05-17 16:31:26.772
73.0,596782.1892240273,596363.6751608462,597142.5887516247,596820.0977826235,-750000.0894069779,-750000.0894069779,-750000.0894069779,-750000.0894069779,-0.46,0.78,0.406,192.0,0.0,0.0,0.0,0.0,0.0,0.0,0.0,0.0,0.0,1747524686.7724843,0.0, 2025-05-17 16:31:26.772
74.0,596602.2129776732,596183.5201005364,596962.4336913149,596639.9427223138,-750000.0894069779,-750000.0894069779,-750000.0894069779,-750000.0894069779,-0.46,0.78,0.406,192.0,0.0,0.0,0.0,0.0,0.0,0.0,0.0,0.0,0.0,1747524686.7725277,0.0, 2025-05-17 16:31:26.772
75.0,596404.4447427327,595985.3942376846,596764.3078284631,596441.9956734176,-750000.0894069779,-750000.0894069779,-750000.0894069779,-750000.0894069779,-0.46,0.78,0.406,192.0,0.0,0.0,0.0,0.0,0.0,0.0,0.0,0.0,0.0,1747524686.772617,0.0, 2025-05-17 16:31:26.772
76.0,596199.6133565442,595781.0098863852,596559.5658492525,596237.5219151404,-750000.0894069779,-750000.0894069779,-750000.0894069779,-750000.0894069779,-0.46,0.78,0.406,192.0,0.0,0.0,0.0,0.0,0.0,0.0,0.0,0.0,0.0,1747524686.772657,0.0, 2025-05-17 16:31:26.772
77.0,595998.4476564465,595580.2018141988,596358.4895561326,596036.2668080649,-750000.0894069779,-750000.0894069779,-750000.0894069779,-750000.0894069779,-0.46,0.78,0.406,192.0,0.0,0.0,0.0,0.0,0.0,0.0,0.0,0.0,0.0,1747524686.772696,0.0, 2025-05-17 16:31:26.772
78.0,595796.6561075039,595378.5890792119,596156.4297862565,595834.7434800558,-750000.0894069779,-750000.0894069779,-750000.0894069779,-750000.0894069779,-0.46,0.78,0.406,192.0,0.0,0.0,0.0,0.0,0.0,0.0,0.0,0.0,0.0,1747524686.7727349,0.0, 2025-05-17 16:31:26.772
79.0,595583.6886863338,595165.6216580417,595943.0153301973,595621.1502100409,-750000.0894069779,-750000.0894069779,-750000.0894069779,-750000.0894069779,-0.46,0.78,0.406,192.0,0.0,0.0,0.0,0.0,0.0,0.0,0.0,0.0,0.0,1747524686.772774,0.0, 2025-05-17 16:31:26.772
80.0,595364.9992185831,594946.8427833131,595724.2364554687,595402.3713353124,-750000.0894069779,-750000.0894069779,-750000.0894069779,-750000.0894069779,-0.458,0.784,0.402,192.0,241.0,176.0,24.0,128.0,12.0,144.0,0.0,0.0,0.0,1747524686.7728128,0.0, 2025-05-17 16:31:26.772
81.0,595135.938541405,594717.4244782239,595495.2651852686,595173.2212511565,-750000.0894069779,-750000.0894069779,-750000.0894069779,-750000.0894069779,-0.458,0.784,0.402,192.0,0.0,0.0,0.0,0.0,0.0,0.0,0.0,0.0,0.0,1747524686.7728653,0.0, 2025-05-17 16:31:26.772
82.0,594914.1198294306,594496.1422081164,595273.5358802719,594951.7601670934,-750000.0894069779,-750000.0894069779,-750000.0894069779,-750000.0894069779,-0.458,0.784,0.402,192.0,0.0,0.0,0.0,0.0,0.0,0.0,0.0,0.0,0.0,1747524686.7729185,0.0, 2025-05-17 16:31:26.772
83.0,594692.8375593231,594274.5917170753,595051.9853892309,594730.5673039636,-750000.0894069779,-750000.0894069779,-750000.0894069779,-750000.0894069779,-0.458,0.784,0.402,192.0,0.0,0.0,0.0,0.0,0.0,0.0,0.0,0.0,0.0,1747524686.7729683,0.0, 2025-05-17 16:31:26.772
84.0,594459.842975121,594042.222981718,594819.0802120066,594497.5727197615,-750000.0894069779,-750000.0894069779,-750000.0894069779,-750000.0894069779,-0.458,0.784,0.402,192.0,0.0,0.0,0.0,0.0,0.0,0.0,0.0,0.0,0.0,1747524686.7730465,0.0, 2025-05-17 16:31:26.773
85.0,594221.5733792273,593803.8639788466,594580.5423951796,594258.9454959567,-750000.0894069779,-750000.0894069779,-750000.0894069779,-750000.0894069779,-0.458,0.784,0.402,192.0,0.0,0.0,0.0,0.0,0.0,0.0,0.0,0.0,0.0,1747524686.7731512,0.0, 2025-05-17 16:31:26.773
86.0,593994.5690625393,593576.5020342472,594353.2698575581,594031.9411792685,-750000.0894069779,-750000.0894069779,-750000.0894069779,-750000.0894069779,-0.458,0.784,0.402,192.0,0.0,0.0,0.0,0.0,0.0,0.0,0.0,0.0,0.0,1747524686.7732172,0.0, 2025-05-17 16:31:26.773
87.0,593770.157548208,593352.001112938,594128.6795292711,593807.4402579594,-750000.0894069779,-750000.0894069779,-750000.0894069779,-750000.0894069779,-0.458,0.784,0.402,192.0,0.0,0.0,0.0,0.0,0.0,0.0,0.0,0.0,0.0,1747524686.7732835,0.0, 2025-05-17 16:31:26.773
88.0,593536.626522139,593118.3806798912,593895.0590962243,593573.7304179347,-750000.0894069779,-750000.0894069779,-750000.0894069779,-750000.0894069779,-0.458,0.784,0.402,192.0,0.0,0.0,0.0,0.0,0.0,0.0,0.0,0.0,0.0,1747524686.773374,0.0, 2025-05-17 16:31:26.773
89.0,593315.523065987,592897.6348516506,593674.2238610059,593353.1634036498,-750000.0894069779,-750000.0894069779,-750000.0894069779,-750000.0894069779,-0.458,0.784,0.402,192.0,0.0,0.0,0.0,0.0,0.0,0.0,0.0,0.0,0.0,1747524686.773414,0.0, 2025-05-17 16:31:26.773
90.0,593100.0522494379,592681.895814168,593458.7530444566,593137.3349591893,-750000.0894069779,-750000.0894069779,-750000.0894069779,-750000.0894069779,-0.45,0.786,0.398,192.0,241.0,240.0,24.0,144.0,12.0,112.0,0.0,0.0,0.0,1747524686.7735076,0.0, 2025-05-17 16:31:26.773
91.0,592878.7699793304,592461.1499859274,593237.470774349,592916.2315030374,-750000.0894069779,-750000.0894069779,-750000.0894069779,-750000.0894069779,-0.45,0.786,0.398,192.0,0.0,0.0,0.0,0.0,0.0,0.0,0.0,0.0,0.0,1747524686.7735507,0.0, 2025-05-17 16:31:26.773
92.0,592648.9940463298,592231.4634599047,593007.8736553042,592686.7237909704,-750000.0894069779,-750000.0894069779,-750000.0894069779,-750000.0894069779,-0.45,0.786,0.398,192.0,0.0,0.0,0.0,0.0,0.0,0.0,0.0,0.0,0.0,1747524686.7735906,0.0, 2025-05-17 16:31:26.773
93.0,592419.843962174,592002.3133757488,592778.6341641706,592457.6631137923,-750000.0894069779,-750000.0894069779,-750000.0894069779,-750000.0894069779,-0.45,0.786,0.398,192.0,0.0,0.0,0.0,0.0,0.0,0.0,0.0,0.0,0.0,1747524686.77363,0.0, 2025-05-17 16:31:26.773
94.0,592209.8269712719,591792.5646057803,592568.885394202,592248.0037508016,-750000.0894069779,-750000.0894069779,-750000.0894069779,-750000.0894069779,-0.45,0.786,0.398,192.0,0.0,0.0,0.0,0.0,0.0,0.0,0.0,0.0,0.0,1747524686.7736735,0.0, 2025-05-17 16:31:26.773
95.0,592008.3930502407,591591.2200917269,592367.1832522373,592046.3016088369,-750000.0894069779,-750000.0894069779,-750000.0894069779,-750000.0894069779,-0.45,0.786,0.398,192.0,0.0,0.0,0.0,0.0,0.0,0.0,0.0,0.0,0.0,1747524686.7737129,0.0, 2025-05-17 16:31:26.773
96.0,591792.4751988024,591375.2128333107,592150.8183659099,591830.0261294873,-750000.0894069779,-750000.0894069779,-750000.0894069779,-750000.0894069779,-0.45,0.786,0.398,192.0,0.0,0.0,0.0,0.0,0.0,0.0,0.0,0.0,0.0,1747524686.7737515,0.0, 2025-05-17 16:31:26.773
97.0,591568.1530914489,591150.8013189795,591926.0492236674,591605.5252081782,-750000.0894069779,-750000.0894069779,-750000.0894069779,-750000.0894069779,-0.45,0.786,0.398,192.0,0.0,0.0,0.0,0.0,0.0,0.0,0.0,0.0,0.0,1747524686.7737904,0.0, 2025-05-17 16:31:26.773
98.0,591355.5432981901,590938.5491536319,591713.5288373863,591392.8260079415,-750000.0894069779,-750000.0894069779,-750000.0894069779,-750000.0894069779,-0.45,0.786,0.398,192.0,0.0,0.0,0.0,0.0,0.0,0.0,0.0,0.0,0.0,1747524686.7738292,0.0, 2025-05-17 16:31:26.773
99.0,591150.7119120016,590733.7177674434,591508.60804422,591188.0840287309,-750000.0894069779,-750000.0894069779,-750000.0894069779,-750000.0894069779,-0.45,0.786,0.398,192.0,0.0,0.0,0.0,0.0,0.0,0.0,0.0,0.0,0.0,1747524686.7738676,0.0, 2025-05-17 16:31:26.773
100.0,590941.4995839,590524.5054393418,591299.3957161184,590979.0505145849,-750000.0894069779,-750000.0894069779,-750000.0894069779,-750000.0894069779,-0.438,0.8,0.386,192.0,242.0,80.0,25.0,0.0,12.0,16.0,0.0,0.0,0.0,1747524686.7739227,0.0, 2025-05-17 16:31:26.773
101.0,590729.0686045968,590312.0744600386,591086.8753298373,590766.7983492373,-750000.0894069779,-750000.0894069779,-750000.0894069779,-750000.0894069779,-0.438,0.8,0.386,192.0,0.0,0.0,0.0,0.0,0.0,0.0,0.0,0.0,0.0,1747524686.7739658,0.0, 2025-05-17 16:31:26.773
102.0,590518.6045788055,590101.789248203,590876.4113040462,590556.1555094905,-750000.0894069779,-750000.0894069779,-750000.0894069779,-750000.0894069779,-0.438,0.8,0.386,192.0,0.0,0.0,0.0,0.0,0.0,0.0,0.0,0.0,0.0,1747524686.7740269,0.0, 2025-05-17 16:31:26.774
103.0,590310.4651344378,589893.739210813,590668.450673634,590347.837251167,-750000.0894069779,-750000.0894069779,-750000.0894069779,-750000.0894069779,-0.438,0.8,0.386,192.0,0.0,0.0,0.0,0.0,0.0,0.0,0.0,0.0,0.0,1747524686.774089,0.0, 2025-05-17 16:31:26.774
104.0,590093.29558531,589676.4802547074,590451.0129035728,590130.6677020392,-750000.0894069779,-750000.0894069779,-750000.0894069779,-750000.0894069779,-0.438,0.8,0.386,192.0,0.0,0.0,0.0,0.0,0.0,0.0,0.0,0.0,0.0,1747524686.7741292,0.0, 2025-05-17 16:31:26.774
105.0,589875.0531524484,589458.3272288236,590232.5022497777,589912.5146761554,-750000.0894069779,-750000.0894069779,-750000.0894069779,-750000.0894069779,-0.438,0.8,0.386,192.0,0.0,0.0,0.0,0.0,0.0,0.0,0.0,0.0,0.0,1747524686.7742276,0.0, 2025-05-17 16:31:26.774
106.0,589666.0196383023,589249.3831216554,590023.3793286538,589703.7493829429,-750000.0894069779,-750000.0894069779,-750000.0894069779,-750000.0894069779,-0.438,0.8,0.386,192.0,0.0,0.0,0.0,0.0,0.0,0.0,0.0,0.0,0.0,1747524686.7742677,0.0, 2025-05-17 16:31:26.774
107.0,589466.8208917166,589050.1843750697,589824.0911750903,589504.3718224015,-750000.0894069779,-750000.0894069779,-750000.0894069779,-750000.0894069779,-0.438,0.8,0.386,192.0,0.0,0.0,0.0,0.0,0.0,0.0,0.0,0.0,0.0,1747524686.774307,0.0, 2025-05-17 16:31:26.774
108.0,589263.9564590403,588847.2305354155,589621.3161493917,589301.8650176364,-750000.0894069779,-750000.0894069779,-750000.0894069779,-750000.0894069779,-0.438,0.8,0.386,192.0,0.0,0.0,0.0,0.0,0.0,0.0,0.0,0.0,0.0,1747524686.774346,0.0, 2025-05-17 16:31:26.774
109.0,589043.3000377775,588626.931742064,589400.7491351067,589081.2085963737,-750000.0894069779,-750000.0894069779,-750000.0894069779,-750000.0894069779,-0.438,0.8,0.386,192.0,0.0,0.0,0.0,0.0,0.0,0.0,0.0,0.0,0.0,1747524686.7743847,0.0, 2025-05-17 16:31:26.774
110.0,588818.6203025128,588402.3414137771,589175.8905858863,588856.2606401754,-750000.0894069779,-750000.0894069779,-750000.0894069779,-750000.0894069779,-0.436,0.8140000000000001,0.386,192.0,242.0,96.0,25.0,112.0,12.0,16.0,0.0,0.0,0.0,1747524686.774424,0.0, 2025-05-17 16:31:26.774
111.0,588617.3651954371,588201.2651206572,588974.3672578773,588654.916126122,-750000.0894069779,-750000.0894069779,-750000.0894069779,-750000.0894069779,-0.436,0.8140000000000001,0.386,192.0,0.0,0.0,0.0,0.0,0.0,0.0,0.0,0.0,0.0,1747524686.7744665,0.0, 2025-05-17 16:31:26.774
112.0,588408.1528673355,587992.2316065112,588765.0655227978,588445.5249840647,-750000.0894069779,-750000.0894069779,-750000.0894069779,-750000.0894069779,-0.436,0.8140000000000001,0.386,192.0,0.0,0.0,0.0,0.0,0.0,0.0,0.0,0.0,0.0,1747524686.7745056,0.0, 2025-05-17 16:31:26.774
113.0,588197.7782485221,587781.5887667643,588554.7803109622,588235.1503652513,-750000.0894069779,-750000.0894069779,-750000.0894069779,-750000.0894069779,-0.436,0.8140000000000001,0.386,192.0,0.0,0.0,0.0,0.0,0.0,0.0,0.0,0.0,0.0,1747524686.774545,0.0, 2025-05-17 16:31:26.774
114.0,587993.1256762893,587577.1150084871,588350.1277387295,588030.7660139521,-750000.0894069779,-750000.0894069779,-750000.0894069779,-750000.0894069779,-0.436,0.8140000000000001,0.386,192.0,0.0,0.0,0.0,0.0,0.0,0.0,0.0,0.0,0.0,1747524686.774584,0.0, 2025-05-17 16:31:26.774
115.0,587794.5527785483,587378.8103316796,588151.3760270328,587832.1931162111,-750000.0894069779,-750000.0894069779,-750000.0894069779,-750000.0894069779,-0.436,0.8140000000000001,0.386,192.0,0.0,0.0,0.0,0.0,0.0,0.0,0.0,0.0,0.0,1747524686.7746365,0.0, 2025-05-17 16:31:26.774
116.0,587597.9468343195,587181.7573525617,587954.6806758262,587634.9613231375,-750000.0894069779,-750000.0894069779,-750000.0894069779,-750000.0894069779,-0.436,0.8140000000000001,0.386,192.0,0.0,0.0,0.0,0.0,0.0,0.0,0.0,0.0,0.0,1747524686.7746797,0.0, 2025-05-17 16:31:26.774
117.0,587398.4798668004,586982.5586059759,587755.3031152849,587435.4943556184,-750000.0894069779,-750000.0894069779,-750000.0894069779,-750000.0894069779,-0.436,0.8140000000000001,0.386,192.0,0.0,0.0,0.0,0.0,0.0,0.0,0.0,0.0,0.0,1747524686.7747188,0.0, 2025-05-17 16:31:26.774
118.0,587204.3773179505,586788.5454641039,587561.0217524794,587241.5706207241,-750000.0894069779,-750000.0894069779,-750000.0894069779,-750000.0894069779,-0.436,0.8140000000000001,0.386,192.0,0.0,0.0,0.0,0.0,0.0,0.0,0.0,0.0,0.0,1747524686.7747777,0.0, 2025-05-17 16:31:26.774
119.0,587016.7120715037,586600.7908106793,587373.1776920769,587053.7265603216,-750000.0894069779,-750000.0894069779,-750000.0894069779,-750000.0894069779,-0.436,0.8140000000000001,0.386,192.0,0.0,0.0,0.0,0.0,0.0,0.0,0.0,0.0,0.0,1747524686.7748168,0.0, 2025-05-17 16:31:26.774
120.0,586833.3383599924,586417.417099168,587189.62516661,586870.2634418325,-750000.0894069779,-750000.0894069779,-750000.0894069779,-750000.0894069779,-0.436,0.8260000000000001,0.388,192.0,242.0,96.0,25.0,208.0,12.0,32.0,0.0,0.0,0.0,1747524686.774868,0.0, 2025-05-17 16:31:26.774
121.0,586647.1930321686,586231.4505852999,587003.3010248306,586684.2075209866,-750000.0894069779,-750000.0894069779,-750000.0894069779,-750000.0894069779,-0.436,0.8260000000000001,0.388,192.0,0.0,0.0,0.0,0.0,0.0,0.0,0.0,0.0,0.0,1747524686.7749107,0.0, 2025-05-17 16:31:26.774
122.0,586455.5044717198,586040.0302457846,586811.7912783375,586492.42955356,-750000.0894069779,-750000.0894069779,-750000.0894069779,-750000.0894069779,-0.436,0.8260000000000001,0.388,192.0,0.0,0.0,0.0,0.0,0.0,0.0,0.0,0.0,0.0,1747524686.7749498,0.0, 2025-05-17 16:31:26.774
123.0,586266.0510857167,585850.6662667593,586622.4272993121,586303.1549815125,-750000.0894069779,-750000.0894069779,-750000.0894069779,-750000.0894069779,-0.436,0.8260000000000001,0.388,192.0,0.0,0.0,0.0,0.0,0.0,0.0,0.0,0.0,0.0,1747524686.7749891,0.0, 2025-05-17 16:31:26.774
124.0,586075.4354090018,585660.1399970222,586431.901029575,586112.7181187533,-750000.0894069779,-750000.0894069779,-750000.0894069779,-750000.0894069779,-0.436,0.8260000000000001,0.388,192.0,0.0,0.0,0.0,0.0,0.0,0.0,0.0,0.0,0.0,1747524686.775028,0.0, 2025-05-17 16:31:26.775
125.0,585894.7439068251,585479.4484948455,586251.1201204205,585931.6689886652,-750000.0894069779,-750000.0894069779,-750000.0894069779,-750000.0894069779,-0.436,0.8260000000000001,0.388,192.0,0.0,0.0,0.0,0.0,0.0,0.0,0.0,0.0,0.0,1747524686.775067,0.0, 2025-05-17 16:31:26.775
126.0,585703.4129742876,585288.1175623081,586059.8785948609,585740.6956840392,-750000.0894069779,-750000.0894069779,-750000.0894069779,-750000.0894069779,-0.436,0.8260000000000001,0.388,192.0,0.0,0.0,0.0,0.0,0.0,0.0,0.0,0.0,0.0,1747524686.7751057,0.0, 2025-05-17 16:31:26.775
127.0,585513.7807743289,585098.4853623492,585870.1569879242,585551.2422980359,-750000.0894069779,-750000.0894069779,-750000.0894069779,-750000.0894069779,-0.436,0.8260000000000001,0.388,192.0,0.0,0.0,0.0,0.0,0.0,0.0,0.0,0.0,0.0,1747524686.7751448,0.0, 2025-05-17 16:31:26.775
128.0,585332.642237263,584917.7938601725,585688.8396369028,585370.1037609702,-750000.0894069779,-750000.0894069779,-750000.0894069779,-750000.0894069779,-0.436,0.8260000000000001,0.388,192.0,0.0,0.0,0.0,0.0,0.0,0.0,0.0,0.0,0.0,1747524686.7751837,0.0, 2025-05-17 16:31:26.775
129.0,585140.2384209917,584725.3006369234,585496.4358206316,585177.3423167876,-750000.0894069779,-750000.0894069779,-750000.0894069779,-750000.0894069779,-0.436,0.8260000000000001,0.388,192.0,0.0,0.0,0.0,0.0,0.0,0.0,0.0,0.0,0.0,1747524686.7752223,0.0, 2025-05-17 16:31:26.775
130.0,584945.9570581862,584530.9298671401,585302.0650508482,584983.060953982,-750000.0894069779,-750000.0894069779,-750000.0894069779,-750000.0894069779,-0.434,0.8280000000000001,0.386,192.0,242.0,112.0,25.0,224.0,12.0,16.0,0.0,0.0,0.0,1747524686.7752738,0.0, 2025-05-17 16:31:26.775
131.0,584757.6659628947,584342.6387718485,585113.595141601,584794.4122307792,-750000.0894069779,-750000.0894069779,-750000.0894069779,-750000.0894069779,-0.434,0.8280000000000001,0.386,192.0,0.0,0.0,0.0,0.0,0.0,0.0,0.0,0.0,0.0,1747524686.775316,0.0, 2025-05-17 16:31:26.775
132.0,584580.7295537865,584166.0599906517,584936.7481394706,584617.7440426045,-750000.0894069779,-750000.0894069779,-750000.0894069779,-750000.0894069779,-0.434,0.8280000000000001,0.386,192.0,0.0,0.0,0.0,0.0,0.0,0.0,0.0,0.0,0.0,1747524686.775355,0.0, 2025-05-17 16:31:26.775
133.0,584403.3461097892,583988.6765466543,584759.4541024511,584440.7182265185,-750000.0894069779,-750000.0894069779,-750000.0894069779,-750000.0894069779,-0.434,0.8280000000000001,0.386,192.0,0.0,0.0,0.0,0.0,0.0,0.0,0.0,0.0,0.0,1747524686.7754047,0.0, 2025-05-17 16:31:26.775
134.0,584220.3300261891,583805.7498700321,584576.2592048955,584257.433921985,-750000.0894069779,-750000.0894069779,-750000.0894069779,-750000.0894069779,-0.434,0.8280000000000001,0.386,192.0,0.0,0.0,0.0,0.0,0.0,0.0,0.0,0.0,0.0,1747524686.7754436,0.0, 2025-05-17 16:31:26.775
135.0,584042.0525124136,583627.3829492787,584397.8922841421,584079.4246291429,-750000.0894069779,-750000.0894069779,-750000.0894069779,-750000.0894069779,-0.434,0.8280000000000001,0.386,192.0,0.0,0.0,0.0,0.0,0.0,0.0,0.0,0.0,0.0,1747524686.775494,0.0, 2025-05-17 16:31:26.775
136.0,583879.331812779,583464.7516566219,584235.0821775296,583916.6145225305,-750000.0894069779,-750000.0894069779,-750000.0894069779,-750000.0894069779,-0.434,0.8280000000000001,0.386,192.0,0.0,0.0,0.0,0.0,0.0,0.0,0.0,0.0,0.0,1747524686.7755332,0.0, 2025-05-17 16:31:26.775
137.0,583719.3827294568,583304.8025732997,584075.4013151409,583756.8442531639,-750000.0894069779,-750000.0894069779,-750000.0894069779,-750000.0894069779,-0.434,0.8280000000000001,0.386,192.0,0.0,0.0,0.0,0.0,0.0,0.0,0.0,0.0,0.0,1747524686.7755747,0.0, 2025-05-17 16:31:26.775
33.0,-23548.18863251074,-24563.0472377595,-24160.358209652688,-24787.548159068607,-113168.93853770956,-166623.85065839897,-204072.94679557648,-447312.6765862318,-0.434,0.8280000000000001,0.386,192.0,0.0,0.0,0.0,0.0,0.0,0.0,0.0,0.0,0.0,1747524686.7756844,0.0, 2025-05-17 16:31:26.775
34.0,-23517.34322516241,-24574.13370300933,-24155.3514188947,-24799.886322007933,-113168.3126888648,-166631.00321662467,-204058.64167912505,-447317.50456303416,-0.434,0.8280000000000001,0.386,192.0,0.0,0.0,0.0,0.0,0.0,0.0,0.0,0.0,0.0,1747524686.7866757,0.0, 2025-05-17 16:31:26.786
35.0,-23481.13339914482,-24588.796447372013,-24145.606058312187,-24809.45286863481,-113163.216491129,-166628.41041426783,-204036.37934164755,-447315.71642347774,-0.434,0.8280000000000001,0.386,192.0,0.0,0.0,0.0,0.0,0.0,0.0,0.0,0.0,0.0,1747524686.78679,0.0, 2025-05-17 16:31:26.786
37.0,-23475.947794431188,-24597.82655213196,-24146.58953506822,-24805.42955463285,-113160.80250272782,-166637.9769608947,-204029.49500435533,-447326.2664468606,-0.434,0.8280000000000001,0.386,192.0,0.0,0.0,0.0,0.0,0.0,0.0,0.0,0.0,0.0,1747524686.7868629,0.0, 2025-05-17 16:31:26.786
38.0,-23452.523166242023,-24601.134610311343,-24143.63910480012,-24811.50922912469,-113160.35546783872,-166644.6824842313,-204021.18015541797,-447329.7533189957,-0.004,0.936,0.354,192.0,255.0,224.0,29.0,64.0,11.0,16.0,0.0,0.0,0.0,1747524686.7869363,0.0, 2025-05-17 16:31:26.786
53.0,-23317.51862973197,-24652.185994647265,-24155.709046805987,-24837.79488060413,-113176.62753780215,-166675.79611251308,-203989.53008526925,-447351.3004006506,-0.004,0.936,0.354,192.0,0.0,0.0,0.0,0.0,0.0,0.0,0.0,0.0,0.0,1747524686.7870188,0.0, 2025-05-17 16:31:26.787
54.0,-23322.79364142342,-24639.132575885367,-24154.72557004995,-24822.86391530799,-113171.08430517724,-166674.09737993448,-203990.60296900308,-447348.7970052716,-0.004,0.936,0.354,192.0,0.0,0.0,0.0,0.0,0.0,0.0,0.0,0.0,0.0,1747524686.787103,0.0, 2025-05-17 16:31:26.787
57.0,-23273.88802455521,-24662.467797096702,-24151.328104892746,-24836.90081082592,-113170.72667726596,-166672.84568224498,-203965.3902012575,-447347.0088657152,-0.004,0.936,0.354,192.0,0.0,0.0,0.0,0.0,0.0,0.0,0.0,0.0,0.0,1747524686.7872412,0.0, 2025-05-17 16:31:26.787
74.0,-23242.59558231778,-24681.600890350448,-24195.40574495861,-24824.026206019666,-113197.01232874542,-166667.66007753136,-203968.0724105921,-447343.8796214914,-0.004,0.936,0.354,192.0,0.0,0.0,0.0,0.0,0.0,0.0,0.0,0.0,0.0,1747524686.7873127,0.0, 2025-05-17 16:31:26.787
75.0,-23257.79476854739,-24668.011029721623,-24199.42905896057,-24810.61515934648,-113196.29707292284,-166665.24608913017,-203976.11903859605,-447341.2868191346,-0.004,0.936,0.354,192.0,0.0,0.0,0.0,0.0,0.0,0.0,0.0,0.0,0.0,1747524686.7873816,0.0, 2025-05-17 16:31:26.787
76.0,-23251.0892452108,-24685.35598341894,-24209.17441954308,-24829.122403755475,-113209.08227075129,-166673.65034504535,-203978.80124793068,-447349.6910750498,-0.004,0.936,0.354,192.0,0.0,0.0,0.0,0.0,0.0,0.0,0.0,0.0,0.0,1747524686.7874837,0.0, 2025-05-17 16:31:26.787
77.0,-23244.651942807668,-24690.98862302168,-24209.35323349872,-24830.28469446715,-113209.26108470692,-166665.42490308583,-203972.90038739447,-447343.611400558,-0.004,0.936,0.354,192.0,0.0,0.0,0.0,0.0,0.0,0.0,0.0,0.0,0.0,1747524686.7875516,0.0, 2025-05-17 16:31:26.787
94.0,-23368.48060709007,-24620.357110542907,-24280.70000180006,-24739.0895770895,-113232.86452685171,-166561.6234018354,-204036.64756258103,-447258.13832976087,-0.004,0.936,0.354,192.0,0.0,0.0,0.0,0.0,0.0,0.0,0.0,0.0,0.0,1747524686.7876613,0.0, 2025-05-17 16:31:26.787
99.0,-23412.91587506722,-24607.214284803187,-24299.11783923124,-24716.290797745085,-113240.19589903306,-166546.5136225836,-204054.2607372118,-447247.3200854445,-0.01,0.932,0.354,192.0,255.0,176.0,29.0,32.0,11.0,16.0,0.0,0.0,0.0,1747524686.787732,0.0, 2025-05-17 16:31:26.787
100.0,-23431.87015436532,-24591.031621817547,-24302.24708345498,-24700.64457662637,-113238.3183524988,-166543.02675044857,-204062.664993127,-447243.4755853982,-0.01,0.932,0.354,192.0,0.0,0.0,0.0,0.0,0.0,0.0,0.0,0.0,0.0,1747524686.7878122,0.0, 2025-05-17 16:31:26.787
118.0,-23485.60374803588,-24516.197981381178,-24320.843734841797,-24628.850773435926,-113241.1793757891,-166472.57405192545,-204078.13240029008,-447181.7847707016,-0.01,0.932,0.354,192.0,0.0,0.0,0.0,0.0,0.0,0.0,0.0,0.0,0.0,1747524686.7878933,0.0, 2025-05-17 16:31:26.787
119.0,-23479.7922944775,-24518.880190715816,-24317.71449061805,-24628.40373854682,-113238.76538738792,-166467.47785418964,-204070.44340019743,-447178.1190846109,-0.006,0.936,0.356,192.0,255.0,208.0,29.0,64.0,11.0,32.0,0.0,0.0,0.0,1747524686.7879665,0.0, 2025-05-17 16:31:26.787
1.0,540711.139525311,485214.1720311847,153073.23969283578,433894.3879478441,-267724.8141437548,-348945.5102617157,-322601.56543273514,-323916.92089044105,-0.006,0.936,0.356,192.0,0.0,0.0,0.0,0.0,0.0,0.0,0.0,0.0,0.0,1747524687.3659184,0.0, 2025-05-17 16:31:27.365
2.0,540761.8332817357,485408.63220794586,153923.94708680478,434495.2922457805,-267265.1728707758,-348887.57454008755,-322283.8130335585,-323815.6227845696,-0.006,0.936,0.356,192.0,0.0,0.0,0.0,0.0,0.0,0.0,0.0,0.0,0.0,1747524687.3660195,0.0, 2025-05-17 16:31:27.366
3.0,540819.9478173194,485409.61568470194,154546.1302454627,434870.1757037849,-267035.39693777525,-348904.29364494013,-322187.2534975116,-323884.7343784254,-0.006,0.936,0.356,192.0,0.0,0.0,0.0,0.0,0.0,0.0,0.0,0.0,0.0,1747524687.3660996,0.0, 2025-05-17 16:31:27.366
4.0,540890.8475507316,485149.2625652865,154887.39667980632,434968.4339724105,-267084.92840348824,-349013.90659974894,-323042.43124037166,-324181.65495176974,-0.006,0.936,0.356,192.0,0.0,0.0,0.0,0.0,0.0,0.0,0.0,0.0,0.0,1747524687.3661788,0.0, 2025-05-17 16:31:27.366
5.0,540945.3858072025,485036.4309592761,155394.69187196397,435231.6481151162,-266968.8781462763,-349058.43127470394,-323334.5238369136,-324309.5963370319,-0.006,0.936,0.356,192.0,0.0,0.0,0.0,0.0,0.0,0.0,0.0,0.0,0.0,1747524687.3662424,0.0, 2025-05-17 16:31:27.366
6.0,541004.3944125646,485078.988680719,156077.40355460686,435665.2719575491,-266676.96436368994,-349057.9842398148,-323214.4502656997,-324269.0055691011,-0.006,0.936,0.356,192.0,0.0,0.0,0.0,0.0,0.0,0.0,0.0,0.0,0.0,1747524687.3663464,0.0, 2025-05-17 16:31:27.366
7.0,541060.8996225477,485234.4674151501,156871.8739595263,436209.2240106135,-266272.75541696016,-349023.29433242016,-322990.21756532404,-324119.42769520613,-0.006,0.936,0.356,192.0,0.0,0.0,0.0,0.0,0.0,0.0,0.0,0.0,0.0,1747524687.3663874,0.0, 2025-05-17 16:31:27.366
8.0,541116.7789836859,485103.8438205533,157355.92333745043,436447.13597859576,-266176.3746948689,-349077.2067400464,-323631.4444102579,-324280.1814413287,-0.386,0.59,0.658,192.0,243.0,240.0,18.0,112.0,20.0,144.0,0.0,0.0,0.0,1747524687.3664284,0.0, 2025-05-17 16:31:27.366
10.0,541229.252961785,485486.8633135395,159188.3193478965,437764.54779679154,-265115.8291239535,-348936.4801569558,-323092.1415200402,-323822.41771488404,-0.386,0.59,0.658,192.0,0.0,0.0,0.0,0.0,0.0,0.0,0.0,0.0,0.0,1747524687.3664937,0.0, 2025-05-17 16:31:27.366
11.0,541282.3607066108,485287.4857529981,159455.82502553763,437784.7537737792,-265235.9921021452,-349049.6693908774,-323657.2830268482,-324185.58885879384,-0.386,0.59,0.658,192.0,0.0,0.0,0.0,0.0,0.0,0.0,0.0,0.0,0.0,1747524687.3665345,0.0, 2025-05-17 16:31:27.366
12.0,541349.3265329989,485322.62269528187,160117.25784745908,438190.92967402097,-264959.1880988108,-349063.0804375506,-323636.9876428828,-324176.3799400783,-0.386,0.59,0.658,192.0,0.0,0.0,0.0,0.0,0.0,0.0,0.0,0.0,0.0,1747524687.366595,0.0, 2025-05-17 16:31:27.366
13.0,541410.8385337399,485235.6297058618,160659.24294701134,438480.87650309526,-264800.8483410893,-349106.17460086045,-323748.0311093368,-324279.9132203953,-0.386,0.59,0.658,192.0,0.0,0.0,0.0,0.0,0.0,0.0,0.0,0.0,0.0,1747524687.366635,0.0, 2025-05-17 16:31:27.366
14.0,541464.5721274104,485380.20078899874,161451.38877050744,439015.53023046616,-264392.6160803576,-349069.51773995376,-323594.876956329,-324148.5743699759,-0.386,0.59,0.658,192.0,0.0,0.0,0.0,0.0,0.0,0.0,0.0,0.0,0.0,1747524687.3666773,0.0, 2025-05-17 16:31:27.366
15.0,541522.6866629942,485500.5425811461,162253.4587685417,439549.3792950367,-263971.5092148196,-349034.6490186035,-323441.2757684321,-324014.6427171997,-0.386,0.59,0.658,192.0,0.0,0.0,0.0,0.0,0.0,0.0,0.0,0.0,0.0,1747524687.366732,0.0, 2025-05-17 16:31:27.366
16.0,541575.7050008422,485522.4472907123,162902.37461356816,439941.60770673846,-263704.4505720676,-349038.9405535389,-323487.32036201004,-324047.2762641044,-0.386,0.59,0.658,192.0,0.0,0.0,0.0,0.0,0.0,0.0,0.0,0.0,0.0,1747524687.3667722,0.0, 2025-05-17 16:31:27.366
17.0,541641.6873504743,485285.7870204195,163222.45159416815,440022.69983562233,-263767.92952632066,-349151.1463107045,-323883.3038667803,-324371.8235935955,-0.386,0.59,0.658,192.0,0.0,0.0,0.0,0.0,0.0,0.0,0.0,0.0,0.0,1747524687.3668122,0.0, 2025-05-17 16:31:27.366
18.0,541702.3946884149,485160.88547240326,163723.93533276743,440265.7080013405,-263649.4652807075,-349205.95278810896,-324018.1295893347,-324517.8251883775,-0.356,0.532,0.6980000000000001,192.0,244.0,224.0,16.0,160.0,21.0,208.0,0.0,0.0,0.0,1747524687.3668516,0.0, 2025-05-17 16:31:27.366
19.0,541765.9630496458,485385.83342860144,164754.5295661127,441012.5244870812,-262994.9167960783,-349109.7508799733,-323579.1413282325,-324161.44897478214,-0.356,0.532,0.6980000000000001,192.0,0.0,0.0,0.0,0.0,0.0,0.0,0.0,0.0,0.0,1747524687.3668947,0.0, 2025-05-17 16:31:27.366
20.0,541820.2330851833,485426.1559755989,165432.32386497545,441435.15127124207,-262691.9165482421,-349106.26400783827,-323575.65445609746,-324165.025253895,-0.356,0.532,0.6980000000000001,192.0,0.0,0.0,0.0,0.0,0.0,0.0,0.0,0.0,0.0,1747524687.3669343,0.0, 2025-05-17 16:31:27.366
21.0,541873.8772718761,484886.942492359,165290.97143304007,441074.93055760034,-263211.639310317,-349338.18570830656,-324458.90598999336,-324933.7464492019,-0.356,0.532,0.6980000000000001,192.0,0.0,0.0,0.0,0.0,0.0,0.0,0.0,0.0,0.0,1747524687.3669748,0.0, 2025-05-17 16:31:27.366
22.0,541928.6837492804,484773.2168165704,165792.99161350628,441317.3128744737,-263085.7542855447,-349385.5714065518,-324562.618084266,-325071.34378806874,-0.356,0.532,0.6980000000000001,192.0,0.0,0.0,0.0,0.0,0.0,0.0,0.0,0.0,0.0,1747524687.3671536,0.0, 2025-05-17 16:31:27.367
23.0,541989.1228662876,484764.0078978549,166412.2243418961,441674.1361229582,-262842.3884919153,-349405.86679051723,-324536.3324327865,-325093.6955325241,-0.356,0.532,0.6980000000000001,192.0,0.0,0.0,0.0,0.0,0.0,0.0,0.0,0.0,0.0,1747524687.3671944,0.0, 2025-05-17 16:31:27.367
24.0,542053.4064833411,484991.5486564098,167272.49828249196,442265.7420952013,-262356.28275350126,-349360.62685973966,-324290.2844298225,-324873.1285182392,-0.356,0.532,0.6980000000000001,192.0,0.0,0.0,0.0,0.0,0.0,0.0,0.0,0.0,0.0,1747524687.3672345,0.0, 2025-05-17 16:31:27.367
25.0,542109.464658435,485119.4006346942,168029.0601288152,442752.74190339353,-261973.17385353733,-349336.39756875014,-324167.7968702074,-324754.12783075904,-0.356,0.532,0.6980000000000001,192.0,0.0,0.0,0.0,0.0,0.0,0.0,0.0,0.0,0.0,1747524687.3672917,0.0, 2025-05-17 16:31:27.367
26.0,542162.2147753495,485157.9350421352,168692.4599042487,443148.7254081637,-261683.13761748525,-349336.39756875014,-324118.71243938355,-324728.28921416873,-0.356,0.532,0.6980000000000001,192.0,0.0,0.0,0.0,0.0,0.0,0.0,0.0,0.0,0.0,1747524687.3673315,0.0, 2025-05-17 16:31:27.367
27.0,542221.6704156006,485240.8153105754,169399.9373197481,443590.1276576672,-261345.71568318797,-349329.2450105244,-324037.1732756106,-324656.9424458674,-0.356,0.532,0.6980000000000001,192.0,0.0,0.0,0.0,0.0,0.0,0.0,0.0,0.0,0.0,1747524687.3673873,0.0, 2025-05-17 16:31:27.367
28.0,542266.8209394003,485336.7489977776,170127.17367734597,444040.291790997,-260988.4453998143,-349302.5123241559,-323930.1531231586,-324564.7638517337,-0.336,0.482,0.724,192.0,245.0,128.0,15.0,16.0,22.0,160.0,0.0,0.0,0.0,1747524687.3674507,0.0, 2025-05-17 16:31:27.367
29.0,542321.1803819156,485591.11184967903,171204.79598102524,444828.9507423581,-260278.55399591377,-349183.95867156493,-323425.0036984687,-324155.995149135,-0.336,0.482,0.724,192.0,0.0,0.0,0.0,0.0,0.0,0.0,0.0,0.0,0.0,1747524687.3675263,0.0, 2025-05-17 16:31:27.367
30.0,542379.5631384329,485907.52314418834,172200.7897139537,445564.5913558712,-259645.37377898383,-349093.47881000984,-323082.4855664356,-323891.5293087398,-0.336,0.482,0.724,192.0,0.0,0.0,0.0,0.0,0.0,0.0,0.0,0.0,0.0,1747524687.3675673,0.0, 2025-05-17 16:31:27.367
31.0,542441.4327670851,485820.172526857,172529.53917140237,445658.11105467216,-259681.31538406797,-349199.15785779455,-323646.0177476428,-324196.2282891546,-0.336,0.482,0.724,192.0,0.0,0.0,0.0,0.0,0.0,0.0,0.0,0.0,0.0,1747524687.3676076,0.0, 2025-05-17 16:31:27.367
32.0,542498.563825913,485915.92740010354,173260.97765695784,446128.2129440562,-259316.17728664607,-349184.04807854275,-323588.26083997026,-324128.3683929883,-0.336,0.482,0.724,192.0,0.0,0.0,0.0,0.0,0.0,0.0,0.0,0.0,0.0,1747524687.3676608,0.0, 2025-05-17 16:31:27.367
33.0,542544.6978264687,485914.1392605471,173874.30952481146,446480.1188087605,-259068.8775859925,-349192.2735205023,-323660.32286409417,-324178.9727424351,-0.336,0.482,0.724,192.0,0.0,0.0,0.0,0.0,0.0,0.0,0.0,0.0,0.0,1747524687.367702,0.0, 2025-05-17 16:31:27.367
34.0,542599.7725248066,485891.2510742249,174455.2760666938,446799.6593474936,-258853.76439735468,-349218.6485789596,-323756.7929931632,-324245.9385688232,-0.336,0.482,0.724,192.0,0.0,0.0,0.0,0.0,0.0,0.0,0.0,0.0,0.0,1747524687.3677628,0.0, 2025-05-17 16:31:27.367
35.0,542655.0260371001,485878.2870624408,175055.19688787425,447137.7071306357,-258622.11091781987,-349240.10625363665,-323822.41771488404,-324278.4827087501,-0.336,0.482,0.724,192.0,0.0,0.0,0.0,0.0,0.0,0.0,0.0,0.0,0.0,1747524687.367803,0.0, 2025-05-17 16:31:27.367
36.0,542711.0842121941,486031.7094363821,175845.73338576953,447642.67774137,-258196.80192432427,-349207.56211370975,-323660.76989898324,-324142.6735094397,-0.336,0.482,0.724,192.0,0.0,0.0,0.0,0.0,0.0,0.0,0.0,0.0,0.0,1747524687.367843,0.0, 2025-05-17 16:31:27.367
37.0,542766.9635733323,486098.764669748,176525.40523116651,447919.6605586601,-257875.1156181235,-349204.0752415747,-323607.393933224,-324104.8543578213,-0.336,0.482,0.724,192.0,0.0,0.0,0.0,0.0,0.0,0.0,0.0,0.0,0.0,1747524687.3680084,0.0, 2025-05-17 16:31:27.368
38.0,542820.8759809585,486157.05801928736,177200.69613465026,448320.29322627705,-257543.773358318,-349195.402764726,-323548.83236275107,-324064.4424038461,-0.342,0.482,0.738,192.0,245.0,80.0,15.0,16.0,23.0,16.0,0.0,0.0,0.0,1747524687.368052,0.0, 2025-05-17 16:31:27.368
39.0,542872.642621117,486320.4045677668,178122.8397038984,449074.2622702435,-256958.0682466112,-349111.27079859626,-323207.02948654053,-323861.8461921032,-0.342,0.482,0.738,192.0,0.0,0.0,0.0,0.0,0.0,0.0,0.0,0.0,0.0,1747524687.3680973,0.0, 2025-05-17 16:31:27.368
40.0,542918.4189937614,486485.1816278913,178887.98462009247,449607.4854859693,-256518.3647296864,-349063.438065462,-323085.70421763713,-323832.61011035566,-0.342,0.482,0.738,192.0,0.0,0.0,0.0,0.0,0.0,0.0,0.0,0.0,0.0,1747524687.368162,0.0, 2025-05-17 16:31:27.368
41.0,542972.9572502325,486404.89416180784,179169.70600720716,449921.5721990552,-256555.3792185044,-349160.9810782649,-323666.2237246304,-324107.08953226684,-0.342,0.482,0.738,192.0,0.0,0.0,0.0,0.0,0.0,0.0,0.0,0.0,0.0,1747524687.368202,0.0, 2025-05-17 16:31:27.368
42.0,543033.1281463061,486447.9883251177,179791.53153795382,450627.1720680204,-256250.76964506743,-349164.3785434221,-323636.0041661268,-324077.76404354145,-0.342,0.482,0.738,192.0,0.0,0.0,0.0,0.0,0.0,0.0,0.0,0.0,0.0,1747524687.3682663,0.0, 2025-05-17 16:31:27.368
43.0,543085.0736004203,486560.2834892611,180471.47160428425,451385.0750190109,-255888.31375698015,-349143.8149385232,-323559.74001404527,-324079.9098110092,-0.342,0.482,0.738,192.0,0.0,0.0,0.0,0.0,0.0,0.0,0.0,0.0,0.0,1747524687.368307,0.0, 2025-05-17 16:31:27.368
44.0,543137.1084615121,486701.0100723517,181193.1647292572,452179.90305184165,-255484.9094730508,-349109.0356241507,-323422.32148913405,-324081.6979505656,-0.342,0.482,0.738,192.0,0.0,0.0,0.0,0.0,0.0,0.0,0.0,0.0,0.0,1747524687.3683472,0.0, 2025-05-17 16:31:27.368
45.0,543187.5339970033,486870.43629532296,181947.0443662458,453004.0565733977,-255048.96104919448,-349060.8452631051,-323265.59105701343,-324027.2491010725,-0.342,0.482,0.738,192.0,0.0,0.0,0.0,0.0,0.0,0.0,0.0,0.0,0.0,1747524687.3683867,0.0, 2025-05-17 16:31:27.368
46.0,543240.9099627626,486926.40506343904,182563.5054783232,453692.6691165768,-254750.96759211636,-349057.9842398148,-323256.9185801648,-324055.23348513053,-0.342,0.482,0.738,192.0,0.0,0.0,0.0,0.0,0.0,0.0,0.0,0.0,0.0,1747524687.368426,0.0, 2025-05-17 16:31:27.368
47.0,543299.2033123021,487025.3785878872,183354.31019715196,454544.5388012575,-254281.40214459924,-349009.9726927248,-322979.6675419412,-323980.75747260544,-0.342,0.482,0.738,192.0,0.0,0.0,0.0,0.0,0.0,0.0,0.0,0.0,0.0,1747524687.3684652,0.0, 2025-05-17 16:31:27.368
48.0,543347.1254524143,487087.6952514285,184188.477300224,455437.4462887581,-253770.4412663509,-348940.23525002424,-323249.76602193905,-323885.7178551815,-0.37,0.496,0.72,192.0,244.0,112.0,15.0,128.0,22.0,128.0,0.0,0.0,0.0,1747524687.3685043,0.0, 2025-05-17 16:31:27.368
49.0,543401.6637088852,487115.94785642007,185237.9364058896,456540.0131392495,-253046.87059484373,-348816.49599271966,-322844.0371565863,-323605.3375727341,-0.37,0.496,0.72,192.0,0.0,0.0,0.0,0.0,0.0,0.0,0.0,0.0,0.0,1747524687.368547,0.0, 2025-05-17 16:31:27.368
50.0,543445.6519419733,487128.9118682041,186338.8045238024,457684.8694902503,-252272.1591320228,-348667.6333746473,-322214.7014397027,-323355.89210461284,-0.37,0.496,0.72,192.0,0.0,0.0,0.0,0.0,0.0,0.0,0.0,0.0,0.0,1747524687.3685863,0.0, 2025-05-17 16:31:27.368
51.0,543498.4020588878,487148.5814033248,186821.15516914788,458222.2948339337,-252116.68039759167,-348703.1279448424,-322857.17998232605,-323636.1829800824,-0.37,0.496,0.72,192.0,0.0,0.0,0.0,0.0,0.0,0.0,0.0,0.0,0.0,1747524687.3686414,0.0, 2025-05-17 16:31:27.368
52.0,543555.801338649,487173.3471361813,187396.39966444965,458855.2068299302,-251871.16883649456,-348714.92966591474,-322948.19628574804,-323686.07207370666,-0.37,0.496,0.72,192.0,0.0,0.0,0.0,0.0,0.0,0.0,0.0,0.0,0.0,1747524687.3686814,0.0, 2025-05-17 16:31:27.368
53.0,543600.1471996483,487185.8641130762,188281.0817099907,459785.9334690492,-251317.02438795855,-348624.8968392488,-322499.8202919746,-323534.7060602553,-0.37,0.496,0.72,192.0,0.0,0.0,0.0,0.0,0.0,0.0,0.0,0.0,0.0,1747524687.3687208,0.0, 2025-05-17 16:31:27.368
54.0,543649.0528165165,487202.76203188446,189165.31672064267,460700.3880382047,-250768.06554413625,-348539.781396363,-322728.7021551969,-323445.2990824341,-0.37,0.496,0.72,192.0,0.0,0.0,0.0,0.0,0.0,0.0,0.0,0.0,0.0,1747524687.3687682,0.0, 2025-05-17 16:31:27.368
55.0,543699.5677589856,487221.8057181604,189800.5532980625,461368.25816252927,-250474.90006386043,-348526.90679155674,-322823.205330754,-323484.369931742,-0.37,0.496,0.72,192.0,0.0,0.0,0.0,0.0,0.0,0.0,0.0,0.0,0.0,1747524687.368918,0.0, 2025-05-17 16:31:27.368
56.0,543747.5793060756,487238.4354160351,190584.9207144881,462184.1862421258,-250033.67662831268,-348466.8253024609,-322524.49661785323,-323408.3740005939,-0.37,0.496,0.72,192.0,0.0,0.0,0.0,0.0,0.0,0.0,0.0,0.0,0.0,1747524687.368986,0.0, 2025-05-17 16:31:27.368
57.0,543798.8989113449,487257.83673022233,191506.43843489152,463131.0955442304,-249455.21348180933,-348369.9081385026,-322036.9603677941,-323271.4025105718,-0.37,0.496,0.72,192.0,0.0,0.0,0.0,0.0,0.0,0.0,0.0,0.0,0.0,1747524687.3690786,0.0, 2025-05-17 16:31:27.369
58.0,543849.3244468361,487277.32745138736,192147.21824493623,463797.8927848212,-249161.9585945557,-348352.56318480533,-322473.53464049514,-323263.3558825679,-0.406,0.508,0.718,192.0,243.0,80.0,15.0,224.0,22.0,112.0,0.0,0.0,0.0,1747524687.369145,0.0, 2025-05-17 16:31:27.369
59.0,543894.2067497023,487289.7550213045,193099.4919657102,464778.86614547565,-248558.64030821805,-348237.85403226066,-322195.3895324933,-322995.40317003767,-0.406,0.508,0.718,192.0,0.0,0.0,0.0,0.0,0.0,0.0,0.0,0.0,0.0,1747524687.3692153,0.0, 2025-05-17 16:31:27.369
60.0,543935.1551455444,487299.2321609536,193984.8892670738,465689.1185866736,-248027.65226693777,-348139.685170613,-321853.8548772162,-322867.73000570893,-0.406,0.508,0.718,192.0,0.0,0.0,0.0,0.0,0.0,0.0,0.0,0.0,0.0,1747524687.3692794,0.0, 2025-05-17 16:31:27.369
61.0,543987.2794136142,487323.014417054,194088.15432645733,465825.46422785096,-248284.69732817385,-348274.77911410085,-322750.4280508075,-323259.6007894994,-0.406,0.508,0.718,192.0,0.0,0.0,0.0,0.0,0.0,0.0,0.0,0.0,0.0,1747524687.3693423,0.0, 2025-05-17 16:31:27.369
62.0,544034.3968909261,487340.2699637735,194795.89996289017,466566.111632122,-247939.13935889475,-348229.0921484342,-322634.1095726621,-323087.49235719355,-0.406,0.508,0.718,192.0,0.0,0.0,0.0,0.0,0.0,0.0,0.0,0.0,0.0,1747524687.3694053,0.0, 2025-05-17 16:31:27.369
63.0,544083.3919147721,487359.7606849385,195408.60598189905,467212.0770468804,-247692.1972861525,-348213.4459273155,-322581.80649063666,-323071.8461360748,-0.406,0.508,0.718,192.0,0.0,0.0,0.0,0.0,0.0,0.0,0.0,0.0,0.0,1747524687.3694675,0.0, 2025-05-17 16:31:27.369
64.0,544130.0623571947,487377.55267352494,195932.35205797575,467771.4965071078,-247536.27151683232,-348219.7938227408,-322613.36715380754,-323135.772125217,-0.406,0.508,0.718,192.0,0.0,0.0,0.0,0.0,0.0,0.0,0.0,0.0,0.0,1747524687.3695302,0.0, 2025-05-17 16:31:27.369
65.0,544178.967974063,487396.6857667787,196627.93834542492,468501.32566706254,-247215.03224552065,-348177.86195014266,-322431.1557330079,-323068.6274848732,-0.406,0.508,0.718,192.0,0.0,0.0,0.0,0.0,0.0,0.0,0.0,0.0,0.0,1747524687.3695948,0.0, 2025-05-17 16:31:27.369
66.0,544227.426556042,487415.37182514335,197318.8754700274,469228.5620246604,-246901.66078825723,-348136.1088915001,-322288.3727894274,-322966.1670882901,-0.406,0.508,0.718,192.0,0.0,0.0,0.0,0.0,0.0,0.0,0.0,0.0,0.0,1747524687.369679,0.0, 2025-05-17 16:31:27.369
67.0,544270.7889402853,487429.76634857256,197933.19081463703,469879.3554162211,-246668.93442498855,-348110.80671677674,-322272.547754353,-322950.69968112704,-0.406,0.508,0.718,192.0,0.0,0.0,0.0,0.0,0.0,0.0,0.0,0.0,0.0,1747524687.369743,0.0, 2025-05-17 16:31:27.369
68.0,544323.3602432442,487453.81682560645,198450.4995883107,470435.7350392026,-246540.27778390385,-348121.44614713744,-322408.62517459696,-323021.06297267234,-0.428,0.52,0.75,192.0,242.0,160.0,16.0,64.0,23.0,112.0,0.0,0.0,0.0,1747524687.36981,0.0, 2025-05-17 16:31:27.369
69.0,544369.4942437999,487470.8935583704,199366.2058551557,471398.290562426,-246017.8728124944,-348011.20734348387,-321996.63782079675,-322774.9255627305,-0.428,0.52,0.75,192.0,0.0,0.0,0.0,0.0,0.0,0.0,0.0,0.0,0.0,1747524687.3699,0.0, 2025-05-17 16:31:27.369
70.0,544412.2307791986,487483.4999422431,200181.8657138188,472257.4022123101,-245600.1634121136,-347925.8236796646,-321716.79398021626,-322640.0104331983,-0.428,0.52,0.75,192.0,0.0,0.0,0.0,0.0,0.0,0.0,0.0,0.0,0.0,1747524687.3699644,0.0, 2025-05-17 16:31:27.369
71.0,544459.6164774438,487503.080070386,200320.6253433973,472426.82843528135,-245863.19874086368,-348037.3141810077,-322428.6523376289,-322973.0514255824,-0.428,0.52,0.75,192.0,0.0,0.0,0.0,0.0,0.0,0.0,0.0,0.0,0.0,1747524687.3700285,0.0, 2025-05-17 16:31:27.370
72.0,544514.4229548482,487529.544535821,200759.07716263263,472906.2286503588,-245831.72748467055,-348070.48416977935,-322567.9484090744,-323044.2193799281,-0.428,0.52,0.75,192.0,0.0,0.0,0.0,0.0,0.0,0.0,0.0,0.0,0.0,1747524687.3701131,0.0, 2025-05-17 16:31:27.370
73.0,544560.8251763374,487548.58822209697,201118.94024836307,473311.4210738446,-245885.81870625244,-348117.5122401133,-322714.84407363465,-323177.79340479296,-0.428,0.52,0.75,192.0,0.0,0.0,0.0,0.0,0.0,0.0,0.0,0.0,0.0,1747524687.3701758,0.0, 2025-05-17 16:31:27.370
74.0,544615.0952118749,487574.3374317095,201655.38211529044,473901.2389065313,-245765.38750712725,-348118.7639378028,-322661.82573578664,-323151.2395323801,-0.428,0.52,0.75,192.0,0.0,0.0,0.0,0.0,0.0,0.0,0.0,0.0,0.0,1747524687.3702383,0.0, 2025-05-17 16:31:27.370
75.0,544662.6597240758,487594.0069668302,202062.8991201996,474361.953063244,-245780.13965846776,-348149.34112421767,-322743.7225274709,-323236.9808241106,-0.428,0.52,0.75,192.0,0.0,0.0,0.0,0.0,0.0,0.0,0.0,0.0,0.0,1747524687.3703012,0.0, 2025-05-17 16:31:27.370
76.0,544706.2903292526,487609.5637809711,202780.1218962815,475141.5819098451,-245494.30555037328,-348088.5443792992,-322477.02151263016,-323065.9452755386,-0.428,0.52,0.75,192.0,0.0,0.0,0.0,0.0,0.0,0.0,0.0,0.0,0.0,1747524687.3703637,0.0, 2025-05-17 16:31:27.370
77.0,544755.1959461208,487630.1273858699,203506.19596316767,475934.9794310307,-245209.8125469461,-348030.16162278195,-322202.27386978554,-322954.90180908464,-0.428,0.52,0.75,192.0,0.0,0.0,0.0,0.0,0.0,0.0,0.0,0.0,0.0,1747524687.370427,0.0, 2025-05-17 16:31:27.370
78.0,544807.3202141905,487653.8202349925,204201.06699479427,476701.64426584775,-244961.6187765144,-347983.49118035927,-322023.28110018745,-322876.49188953545,-0.424,0.52,0.754,192.0,242.0,192.0,16.0,64.0,23.0,144.0,0.0,0.0,0.0,1747524687.3704906,0.0, 2025-05-17 16:31:27.370
79.0,544849.8779356334,487666.6948397989,205039.7938537352,477615.1153582473,-244576.09588814928,-347885.59053964505,-321933.69530841056,-322646.98417746834,-0.424,0.52,0.754,192.0,0.0,0.0,0.0,0.0,0.0,0.0,0.0,0.0,0.0,1747524687.3705657,0.0, 2025-05-17 16:31:27.370
80.0,544896.4589710783,487683.7715725627,205706.41228037028,478370.8725417701,-244368.671699604,-347839.8141670006,-321849.20571436954,-322592.3565140196,-0.424,0.52,0.754,192.0,0.0,0.0,0.0,0.0,0.0,0.0,0.0,0.0,0.0,1747524687.37063,0.0, 2025-05-17 16:31:27.370
81.0,544940.4472041663,487701.2059332378,205878.2524917427,478597.2510096135,-244664.1617613032,-347932.0821681121,-322419.97986078024,-322873.98849415645,-0.424,0.52,0.754,192.0,0.0,0.0,0.0,0.0,0.0,0.0,0.0,0.0,0.0,1747524687.3707132,0.0, 2025-05-17 16:31:27.370
82.0,544982.7367046758,487715.7792706227,206350.0531137053,479142.1865394338,-244669.52617997245,-347935.83726118057,-322450.37823323946,-322873.98849415645,-0.424,0.52,0.754,192.0,0.0,0.0,0.0,0.0,0.0,0.0,0.0,0.0,0.0,1747524687.3707795,0.0, 2025-05-17 16:31:27.370
83.0,545033.2516471448,487738.3992360114,206738.43702536076,479596.8210216548,-244762.24121597307,-347969.7225057748,-322555.5208391572,-322946.58696014725,-0.424,0.52,0.754,192.0,0.0,0.0,0.0,0.0,0.0,0.0,0.0,0.0,0.0,1747524687.3708444,0.0, 2025-05-17 16:31:27.370
84.0,545076.3458104546,487754.3136780636,207182.87911211004,480109.03359759256,-244805.3353792829,-347979.646680313,-322572.9551998324,-322992.00570488046,-0.424,0.52,0.754,192.0,0.0,0.0,0.0,0.0,0.0,0.0,0.0,0.0,0.0,1747524687.3709865,0.0, 2025-05-17 16:31:27.370
85.0,545126.681938968,487776.6654225189,207785.21392169167,480795.9474081931,-244696.52708727447,-347950.76822647674,-322422.3938491814,-322911.0923899523,-0.424,0.52,0.754,192.0,0.0,0.0,0.0,0.0,0.0,0.0,0.0,0.0,0.0,1747524687.3710506,0.0, 2025-05-17 16:31:27.371
86.0,545171.7430557898,487794.2785971497,208285.89299749053,481362.1617987349,-244693.21902909508,-347944.5097380292,-322372.8623834685,-322891.2440408759,-0.424,0.52,0.754,192.0,0.0,0.0,0.0,0.0,0.0,0.0,0.0,0.0,0.0,1747524687.3711128,0.0, 2025-05-17 16:31:27.371
87.0,545212.2444167429,487806.8849810225,208863.37266723785,482003.3886436688,-244619.90530728168,-347911.0715283241,-322262.087137948,-322829.195598268,-0.424,0.52,0.754,192.0,0.0,0.0,0.0,0.0,0.0,0.0,0.0,0.0,0.0,1747524687.371197,0.0, 2025-05-17 16:31:27.371
88.0,545262.222917345,487829.86257432256,209302.62914927356,482491.908370484,-244691.52029651648,-347924.4825749973,-322316.088952552,-322881.58808727126,-0.4,0.522,0.78,192.0,243.0,128.0,16.0,80.0,24.0,96.0,0.0,0.0,0.0,1747524687.3712602,0.0, 2025-05-17 16:31:27.371
89.0,545306.6581853221,487845.86642335256,210058.4757397742,483176.2293787276,-244449.4956075544,-347840.618829801,-321964.8983436702,-322682.83637557464,-0.4,0.522,0.78,192.0,0.0,0.0,0.0,0.0,0.0,0.0,0.0,0.0,0.0,1747524687.3713305,0.0, 2025-05-17 16:31:27.371
90.0,545350.0205695654,487860.7079816709,210836.3164468189,483951.3878764377,-244185.8344299596,-347749.06608451204,-321606.912804474,-322504.11182691,-0.4,0.522,0.78,192.0,0.0,0.0,0.0,0.0,0.0,0.0,0.0,0.0,0.0,1747524687.371396,0.0, 2025-05-17 16:31:27.371
91.0,545394.3664305648,487879.3046330577,211033.816460826,484270.302566326,-244505.9114105596,-347821.93277143635,-322214.6120327249,-322718.24153879186,-0.4,0.522,0.78,192.0,0.0,0.0,0.0,0.0,0.0,0.0,0.0,0.0,0.0,1747524687.3714602,0.0, 2025-05-17 16:31:27.371
92.0,545448.9940940135,487908.0042729383,211370.97017418983,484638.8381289051,-244691.1626686052,-347863.3282021676,-322391.9060697444,-322818.1091330182,-0.4,0.522,0.78,192.0,0.0,0.0,0.0,0.0,0.0,0.0,0.0,0.0,0.0,1747524687.3715253,0.0, 2025-05-17 16:31:27.371
93.0,545498.7043736822,487933.0382267282,211656.2678404174,484931.9142022031,-244931.04159009957,-347912.4126329914,-322540.05343199417,-322947.74925085896,-0.4,0.522,0.78,192.0,0.0,0.0,0.0,0.0,0.0,0.0,0.0,0.0,0.0,1747524687.3715887,0.0, 2025-05-17 16:31:27.371
94.0,545540.6362462803,487949.5785176252,212235.80387065455,485488.2044182068,-244880.9736825197,-347869.67609759286,-322358.5572670171,-322813.9964120384,-0.4,0.522,0.78,192.0,0.0,0.0,0.0,0.0,0.0,0.0,0.0,0.0,0.0,1747524687.3716526,0.0, 2025-05-17 16:31:27.371
95.0,545585.8761770579,487970.0527155463,212705.27991119385,485874.5319693723,-244942.6644972163,-347859.6625160769,-322312.95970832824,-322810.7777608368,-0.4,0.522,0.78,192.0,0.0,0.0,0.0,0.0,0.0,0.0,0.0,0.0,0.0,1747524687.371717,0.0, 2025-05-17 16:31:27.371
96.0,545637.5534102385,487996.9642158704,213150.88428865487,486117.00369322347,-245027.06468427955,-347859.48370212124,-322277.19691719976,-322797.0984932302,-0.4,0.522,0.78,192.0,0.0,0.0,0.0,0.0,0.0,0.0,0.0,0.0,0.0,1747524687.3718023,0.0, 2025-05-17 16:31:27.371
97.0,545677.250108391,488012.52103001135,213500.10794402455,486259.9654507596,-245208.91847716796,-347872.4477139053,-322333.3444992715,-322823.92058657657,-0.4,0.522,0.78,192.0,0.0,0.0,0.0,0.0,0.0,0.0,0.0,0.0,0.0,1747524687.3718655,0.0, 2025-05-17 16:31:27.371
98.0,545719.271387967,488031.1176813982,213966.4547403401,486397.4733826487,-245271.41395466492,-347851.97351598425,-322249.2125331417,-322759.2793416118,-0.372,0.512,0.784,192.0,244.0,96.0,16.0,0.0,24.0,128.0,0.0,0.0,0.0,1747524687.3719285,0.0, 2025-05-17 16:31:27.371
99.0,545768.1770048353,488054.5423095873,214551.80222413567,486537.3953029389,-245212.0477213917,-347801.3691665374,-322040.89427481825,-322614.8870724305,-0.372,0.512,0.784,192.0,0.0,0.0,0.0,0.0,0.0,0.0,0.0,0.0,0.0,1747524687.3720531,0.0, 2025-05-17 16:31:27.372
100.0,545810.7347262782,488074.1224377301,214990.52226430445,486670.5222929147,-245296.80553636616,-347785.1865035518,-322030.79128632444,-322613.63537474105,-0.372,0.512,0.784,192.0,0.0,0.0,0.0,0.0,0.0,0.0,0.0,0.0,0.0,1747524687.372117,0.0, 2025-05-17 16:31:27.372
101.0,545854.0077035436,488096.92121707456,215078.3199165249,486804.0963177796,-245731.4128555552,-347866.5468533691,-322408.35695366346,-322862.4549940175,-0.372,0.512,0.784,192.0,0.0,0.0,0.0,0.0,0.0,0.0,0.0,0.0,0.0,1747524687.3721826,0.0, 2025-05-17 16:31:27.372
102.0,545892.5421109846,488114.1767637941,215527.41116612093,486929.7131216184,-245799.3621586993,-347837.04255068814,-322284.34947542544,-322768.3988533496,-0.372,0.512,0.784,192.0,0.0,0.0,0.0,0.0,0.0,0.0,0.0,0.0,0.0,1747524687.3722928,0.0, 2025-05-17 16:31:27.372
103.0,545936.2621231392,488137.0649501163,216050.4419863751,487059.442646437,-245786.2193329596,-347788.583968709,-322121.9864037021,-322671.7499103248,-0.372,0.512,0.784,192.0,0.0,0.0,0.0,0.0,0.0,0.0,0.0,0.0,0.0,1747524687.3723676,0.0, 2025-05-17 16:31:27.372
104.0,545981.8596818281,488164.15526439616,216294.88066373835,487191.9437875681,-246045.85719655245,-347818.7141202348,-322288.9092312943,-322813.9070050606,-0.372,0.512,0.784,192.0,0.0,0.0,0.0,0.0,0.0,0.0,0.0,0.0,0.0,1747524687.372434,0.0, 2025-05-17 16:31:27.372
105.0,546025.7585079382,488189.9044740087,216595.55633015116,487320.68983563065,-246243.5360245152,-347828.63829477294,-322314.3902199734,-322851.6367497011,-0.372,0.512,0.784,192.0,0.0,0.0,0.0,0.0,0.0,0.0,0.0,0.0,0.0,1747524687.3724997,0.0, 2025-05-17 16:31:27.372
106.0,546075.2899736512,488221.6439511352,216970.70800908905,487453.9062325843,-246361.64264221705,-347821.21751561377,-322229.4535910432,-322793.701028073,-0.372,0.512,0.784,192.0,0.0,0.0,0.0,0.0,0.0,0.0,0.0,0.0,0.0,1747524687.3725696,0.0, 2025-05-17 16:31:27.372
107.0,546112.5726834027,488241.1346723002,217500.8913875689,487574.4268386873,-246318.99551379628,-347755.77160784864,-321971.42505305115,-322688.20079424395,-0.372,0.512,0.784,192.0,0.0,0.0,0.0,0.0,0.0,0.0,0.0,0.0,0.0,1747524687.3726342,0.0, 2025-05-17 16:31:27.372
108.0,546158.885497914,488271.264823826,217873.00322926085,487703.7987355946,-246429.4131314055,-347741.9135262863,-321946.3910992612,-322654.9413984944,-0.356,0.5,0.768,192.0,244.0,224.0,15.0,160.0,24.0,0.0,0.0,0.0,0.0,1747524687.3726995,0.0, 2025-05-17 16:31:27.372
109.0,546195.4529518429,488292.0966496584,218422.23029401663,487822.7100160969,-246354.22186305784,-347665.0235253601,-321741.02327120584,-322431.4239539414,-0.356,0.5,0.768,192.0,0.0,0.0,0.0,0.0,0.0,0.0,0.0,0.0,0.0,1747524687.3727703,0.0, 2025-05-17 16:31:27.372
110.0,546231.1263359936,488312.8390685128,219035.02572000332,487940.7272268209,-246208.93552409837,-347568.91102420224,-321413.79373238015,-322303.571975657,-0.356,0.5,0.768,192.0,0.0,0.0,0.0,0.0,0.0,0.0,0.0,0.0,0.0,1747524687.3728375,0.0, 2025-05-17 16:31:27.372
111.0,546273.9522783699,488344.04210377246,218983.8849286896,488066.5228446153,-246724.00912332645,-347667.5269207391,-322112.6880780087,-322626.06294465816,-0.356,0.5,0.768,192.0,0.0,0.0,0.0,0.0,0.0,0.0,0.0,0.0,0.0,1747524687.3730657,0.0, 2025-05-17 16:31:27.373
112.0,546321.1591626595,488379.1790460562,219187.1069892773,488195.2688926779,-246978.46138220569,-347695.064269908,-322223.7315444627,-322665.13379396603,-0.356,0.5,0.768,192.0,0.0,0.0,0.0,0.0,0.0,0.0,0.0,0.0,0.0,1747524687.3731349,0.0, 2025-05-17 16:31:27.373
113.0,546367.7401981044,488413.6901394952,219586.48795920468,488321.9585802506,-247035.59244103343,-347665.4705602492,-322080.94860088214,-322557.4877926693,-0.356,0.5,0.768,192.0,0.0,0.0,0.0,0.0,0.0,0.0,0.0,0.0,0.0,1747524687.3732922,0.0, 2025-05-17 16:31:27.373
114.0,546404.0394310999,488439.61816306337,219909.69418402843,488439.0817211964,-247167.5571402976,-347647.58916468493,-322044.5599609089,-322566.160269518,-0.356,0.5,0.768,192.0,0.0,0.0,0.0,0.0,0.0,0.0,0.0,0.0,0.0,1747524687.37347,0.0, 2025-05-17 16:31:27.373
115.0,546448.6535130327,488475.5597681475,220031.3770808431,488565.2349669022,-247496.3065977462,-347694.080793152,-322202.0950558299,-322703.4893874514,-0.356,0.5,0.768,192.0,0.0,0.0,0.0,0.0,0.0,0.0,0.0,0.0,0.0,1747524687.3735397,0.0, 2025-05-17 16:31:27.373
116.0,546486.3832576732,488503.81237313896,220410.10503889385,488681.7322590032,-247563.1830171565,-347658.7650369126,-322053.23243775754,-322600.22432806785,-0.356,0.5,0.768,192.0,0.0,0.0,0.0,0.0,0.0,0.0,0.0,0.0,0.0,1747524687.373607,0.0, 2025-05-17 16:31:27.373
117.0,546517.0498510659,488525.2700478161,220945.47402208732,488790.8981789229,-247469.48450439985,-347572.6661172708,-321795.38271372113,-322473.62404747296,-0.356,0.5,0.768,192.0,0.0,0.0,0.0,0.0,0.0,0.0,0.0,0.0,0.0,1747524687.3737051,0.0, 2025-05-17 16:31:27.373
118.0,546556.7465492185,488556.65189703135,221283.79002616287,488909.2730175583,-247571.1402381826,-347551.29784957145,-321764.0902714837,-322439.6493959009,-0.366,0.496,0.758,192.0,244.0,144.0,15.0,128.0,23.0,176.0,0.0,0.0,0.0,1747524687.3737743,0.0, 2025-05-17 16:31:27.373
119.0,546597.3373171494,488588.1231532244,221949.7826039532,489026.7537864153,-247342.88422380495,-347437.7509877385,-321350.13596417144,-322187.0746835559,-0.366,0.496,0.758,192.0,0.0,0.0,0.0,0.0,0.0,0.0,0.0,0.0,0.0,1747524687.37385,0.0, 2025-05-17 16:31:27.373
120.0,546643.1136897939,488625.9423048428,222464.3197613144,489149.6883809195,-247265.45778101185,-347373.7355916185,-321226.93314873375,-322109.1117988958,-0.366,0.496,0.758,192.0,0.0,0.0,0.0,0.0,0.0,0.0,0.0,0.0,0.0,1747524687.3739262,0.0, 2025-05-17 16:31:27.373
121.0,546684.4197135472,488661.7050959713,222400.6619931057,489269.4937312,-247765.3321940103,-347468.59639508685,-321892.0316567459,-322384.12766267394,-0.366,0.496,0.758,192.0,0.0,0.0,0.0,0.0,0.0,0.0,0.0,0.0,0.0,1747524687.3739953,0.0, 2025-05-17 16:31:27.373
122.0,546724.8316675224,488694.1598289204,222829.90489362535,489385.543988412,-247770.51779872391,-347421.1212898638,-321744.95717823,-322261.0142542141,-0.366,0.496,0.758,192.0,0.0,0.0,0.0,0.0,0.0,0.0,0.0,0.0,0.0,1747524687.845656,0.0, 2025-05-17 16:31:27.845
123.0,546755.5876678929,488718.5679338656,223129.68649025995,489493.1005827309,-247903.82360265535,-347401.0941268318,-321751.30507365527,-322269.8655450184,-0.366,0.496,0.758,192.0,0.0,0.0,0.0,0.0,0.0,0.0,0.0,0.0,0.0,1747524687.8457556,0.0, 2025-05-17 16:31:27.845
124.0,546794.8373311565,488751.73792263726,223386.3739235847,489609.061432965,-248082.72696527565,-347402.7034524326,-321770.43816690904,-322285.6905800928,-0.366,0.496,0.758,192.0,0.0,0.0,0.0,0.0,0.0,0.0,0.0,0.0,0.0,1747524687.8458235,0.0, 2025-05-17 16:31:27.845
125.0,546837.573866555,488787.3218998101,223780.2116608872,489726.9892367112,-248123.4071401843,-347368.2817659714,-321623.6319093266,-322231.5993585109,-0.366,0.496,0.758,192.0,0.0,0.0,0.0,0.0,0.0,0.0,0.0,0.0,0.0,1747524687.845888,0.0, 2025-05-17 16:31:27.845
126.0,546881.3832856874,488825.0516444506,223994.0731518356,489845.98992419126,-248344.15296842493,-347386.9678243361,-321710.17786385753,-322281.6672660908,-0.366,0.496,0.758,192.0,0.0,0.0,0.0,0.0,0.0,0.0,0.0,0.0,0.0,1747524687.8459878,0.0, 2025-05-17 16:31:27.845
127.0,546922.4210885074,488860.3674006901,224279.01319015183,489961.7719604698,-248494.9825400093,-347383.2127312676,-321693.45875900495,-322274.1570799538,-0.366,0.496,0.758,192.0,0.0,0.0,0.0,0.0,0.0,0.0,0.0,0.0,0.0,1747524687.846038,0.0, 2025-05-17 16:31:27.846
128.0,546952.3724260775,488884.3284707461,224684.9208694602,490065.662868698,-248520.2847147328,-347333.94948648807,-321528.8605128361,-322188.6840091567,-0.362,0.496,0.742,192.0,244.0,176.0,15.0,128.0,23.0,48.0,0.0,0.0,0.0,1747524687.8460882,0.0, 2025-05-17 16:31:27.846
129.0,546987.9564032503,488911.8658199151,225323.82313297072,490173.1300560392,-248313.2181540988,-347223.53186887887,-321153.44061296474,-321980.1869368776,-0.362,0.496,0.742,192.0,0.0,0.0,0.0,0.0,0.0,0.0,0.0,0.0,0.0,1747524687.8462658,0.0, 2025-05-17 16:31:27.846
130.0,547025.9543688244,488943.426483086,225761.02325451653,490283.63708062615,-248310.625351742,-347173.91099618806,-321077.0870539054,-321929.0461455639,-0.362,0.496,0.742,192.0,0.0,0.0,0.0,0.0,0.0,0.0,0.0,0.0,0.0,1747524687.8463163,0.0, 2025-05-17 16:31:27.846
131.0,547061.627752975,488974.54011136777,225611.89241551072,490394.32291916886,-248897.8503820718,-347288.8883696662,-321785.1009112717,-322275.8558125324,-0.362,0.496,0.742,192.0,0.0,0.0,0.0,0.0,0.0,0.0,0.0,0.0,0.0,1747524687.8463857,0.0, 2025-05-17 16:31:27.846
132.0,547103.2019976618,489008.69357689546,226062.5035837297,490506.8863042458,-248885.51221913248,-347238.462834175,-321606.8233974962,-322105.26729884953,-0.362,0.496,0.742,192.0,0.0,0.0,0.0,0.0,0.0,0.0,0.0,0.0,0.0,1747524687.8464353,0.0, 2025-05-17 16:31:27.846
133.0,547140.3058934577,489039.44957726594,226297.19690051043,490616.0522241655,-249086.67791923025,-347244.27428773337,-321676.2032122855,-322122.8804734803,-0.362,0.496,0.742,192.0,0.0,0.0,0.0,0.0,0.0,0.0,0.0,0.0,0.0,1747524687.846485,0.0, 2025-05-17 16:31:27.846
134.0,547176.694533431,489070.0267636808,226417.27047172436,490725.0393301296,-249403.98328351777,-347282.00403237395,-321837.0463653858,-322224.17857935175,-0.362,0.496,0.742,192.0,0.0,0.0,0.0,0.0,0.0,0.0,0.0,0.0,0.0,1747524687.8465333,0.0, 2025-05-17 16:31:27.846
135.0,547218.6264060291,489106.0577757428,226706.94907986512,490837.0662733396,-249553.918785324,-347276.460799749,-321788.4089694511,-322187.52171844506,-0.362,0.496,0.742,192.0,0.0,0.0,0.0,0.0,0.0,0.0,0.0,0.0,0.0,1747524687.846582,0.0, 2025-05-17 16:31:27.846
136.0,547260.6476856051,489141.7311598935,226900.87281475935,490949.0932165496,-249802.73840460044,-347298.3655093152,-321846.7917259684,-322247.69261451875,-0.362,0.496,0.742,192.0,0.0,0.0,0.0,0.0,0.0,0.0,0.0,0.0,0.0,1747524687.8466313,0.0, 2025-05-17 16:31:27.846
137.0,547295.5164069553,489170.6990207075,227168.28908542267,491052.8947178,-249980.3006625534,-347293.44812553504,-321812.5488534628,-322221.58577699494,-0.362,0.496,0.742,192.0,0.0,0.0,0.0,0.0,0.0,0.0,0.0,0.0,0.0,1747524687.8466804,0.0, 2025-05-17 16:31:27.846
138.0,547325.646558481,489194.3918698301,227519.7479152379,491150.6165445586,-250071.94281482016,-347258.3111832513,-321691.3129915372,-322133.3410898854,-0.372,0.504,0.752,192.0,244.0,96.0,15.0,192.0,23.0,128.0,0.0,0.0,0.0,1747524687.8467295,0.0, 2025-05-17 16:31:27.846
139.0,547350.4122913376,489211.468602594,228086.31993369103,491242.0798828697,-249949.63406916076,-347157.01307737984,-321333.863894208,-321914.65162213467,-0.372,0.504,0.752,192.0,0.0,0.0,0.0,0.0,0.0,0.0,0.0,0.0,0.0,1747524687.8467836,0.0, 2025-05-17 16:31:27.846
140.0,547395.3840011817,489249.2877542124,228534.8747414201,491353.8386051463,-249948.91881333812,-347110.16382100154,-321162.5601247025,-321865.74600526644,-0.372,0.504,0.752,192.0,0.0,0.0,0.0,0.0,0.0,0.0,0.0,0.0,0.0,1747524687.8468356,0.0, 2025-05-17 16:31:27.846
141.0,547435.5277342234,489284.8717313853,228393.34349552917,491462.8257111104,-250540.16715766996,-347225.94585728005,-321804.5916324367,-322203.16793956375,-0.372,0.504,0.752,192.0,0.0,0.0,0.0,0.0,0.0,0.0,0.0,0.0,0.0,1747524687.8469,0.0, 2025-05-17 16:31:27.846
142.0,547471.737560241,489314.3760340663,228673.2767430874,491565.1967007156,-250710.21922948596,-347216.1110897197,-321765.0737482397,-322150.1496017158,-0.372,0.504,0.752,192.0,0.0,0.0,0.0,0.0,0.0,0.0,0.0,0.0,0.0,1747524687.8469496,0.0, 2025-05-17 16:31:27.846
143.0,547499.2749094099,489335.8337087433,228946.5938742869,491657.82232973847,-250888.6755572171,-347199.2131709115,-321723.58891053067,-322106.518996539,-0.372,0.504,0.752,192.0,0.0,0.0,0.0,0.0,0.0,0.0,0.0,0.0,0.0,1747524687.8469982,0.0, 2025-05-17 16:31:27.846
144.0,547534.4118516936,489365.0697904909,229154.4650977213,491757.95814489824,-251134.45533924765,-347208.77971753833,-321752.7355853004,-322136.9173689982,-0.372,0.504,0.752,192.0,0.0,0.0,0.0,0.0,0.0,0.0,0.0,0.0,0.0,1747524687.8471167,0.0, 2025-05-17 16:31:27.847
145.0,547564.5420032194,489389.030860547,229438.6898802149,491852.2825064996,-251306.1167366644,-347191.52417081886,-321696.2303753174,-322103.032124404,-0.372,0.504,0.752,192.0,0.0,0.0,0.0,0.0,0.0,0.0,0.0,0.0,0.0,1747524687.8471568,0.0, 2025-05-17 16:31:27.847
146.0,547605.1327711502,489423.4525470081,229624.65639408308,491956.7992635726,-251577.2881003962,-347211.46192687296,-321756.4012713911,-322154.17291571776,-0.372,0.504,0.752,192.0,0.0,0.0,0.0,0.0,0.0,0.0,0.0,0.0,0.0,1747524687.8472116,0.0, 2025-05-17 16:31:27.847
147.0,547644.3824344138,489456.1755008907,229833.33228031785,492058.3655903776,-251827.8958592291,-347223.6212758567,-321781.16700424755,-322169.6403228808,-0.372,0.504,0.752,192.0,0.0,0.0,0.0,0.0,0.0,0.0,0.0,0.0,0.0,1747524687.8472517,0.0, 2025-05-17 16:31:27.847
148.0,547683.3638767438,489488.540826862,230072.13831807836,492159.3954753156,-252049.35694329228,-347226.6611131026,-321770.0805389977,-322149.61315984884,-0.374,0.522,0.748,192.0,244.0,80.0,16.0,80.0,23.0,96.0,0.0,0.0,0.0,1747524687.8472908,0.0, 2025-05-17 16:31:27.847
149.0,547717.9643771606,489516.07817603095,230442.1937992804,492254.9715346064,-252143.3236769824,-347187.5008568169,-321609.5056068308,-322012.37344889325,-0.374,0.522,0.748,192.0,0.0,0.0,0.0,0.0,0.0,0.0,0.0,0.0,0.0,1747524687.847334,0.0, 2025-05-17 16:31:27.847
150.0,547750.5085170876,489541.6485716878,230759.6779775236,492347.7759775849,-252290.57696945395,-347161.5728332488,-321534.67196639447,-321966.9547041601,-0.374,0.522,0.748,192.0,0.0,0.0,0.0,0.0,0.0,0.0,0.0,0.0,0.0,1747524687.8473787,0.0, 2025-05-17 16:31:27.847
151.0,547784.6619826152,489570.2588045906,230688.2418022444,492443.4414438536,-252828.18112709295,-347246.8670900902,-321914.20458724553,-322234.9074166903,-0.374,0.522,0.748,192.0,0.0,0.0,0.0,0.0,0.0,0.0,0.0,0.0,0.0,1747524687.8474183,0.0, 2025-05-17 16:31:27.847
152.0,547819.798924899,489598.06437469297,230989.543317502,492537.31877056585,-252995.55098957432,-347225.4988223909,-321819.3437837772,-322198.5187767171,-0.374,0.522,0.748,192.0,0.0,0.0,0.0,0.0,0.0,0.0,0.0,0.0,0.0,1747524687.8474584,0.0, 2025-05-17 16:31:27.847
153.0,547859.0485881625,489630.072072753,231364.5161824842,492634.772376391,-253093.45163028856,-347188.4843335729,-321638.83109555615,-322127.97667121614,-0.374,0.522,0.748,192.0,0.0,0.0,0.0,0.0,0.0,0.0,0.0,0.0,0.0,1747524687.8474982,0.0, 2025-05-17 16:31:27.847
154.0,547888.0164489766,489652.5132241861,231562.37382440257,492722.1229937223,-253367.6628312663,-347191.16654290754,-321666.7260726364,-322143.80170629045,-0.374,0.522,0.748,192.0,0.0,0.0,0.0,0.0,0.0,0.0,0.0,0.0,0.0,1747524687.8475375,0.0, 2025-05-17 16:31:27.847
155.0,547923.9580540607,489681.65989895584,231738.23734977693,492815.3744715899,-253663.59992785452,-347205.9186942481,-321692.6540962045,-322179.7433113746,-0.374,0.522,0.748,192.0,0.0,0.0,0.0,0.0,0.0,0.0,0.0,0.0,0.0,1747524687.8475769,0.0, 2025-05-17 16:31:27.847
156.0,547953.9093916309,489703.4752015442,232255.814344384,492900.2216935423,-253621.13161338947,-347116.95875131595,-321358.361406131,-322018.6319373408,-0.374,0.522,0.748,192.0,0.0,0.0,0.0,0.0,0.0,0.0,0.0,0.0,0.0,1747524687.84763,0.0, 2025-05-17 16:31:27.847
157.0,547990.9238804488,489732.4430623583,232673.9707796539,492991.863845809,-253680.14021875148,-347063.13575066754,-321201.18393912126,-321981.8856694562,-0.374,0.522,0.748,192.0,0.0,0.0,0.0,0.0,0.0,0.0,0.0,0.0,0.0,1747524687.8476696,0.0, 2025-05-17 16:31:27.847
158.0,548025.7031948213,489760.606260372,232918.05182910585,493081.9860794528,-253916.35345415515,-347056.8772622201,-321284.06420756155,-321979.73990198853,-0.38,0.538,0.752,192.0,244.0,32.0,16.0,208.0,23.0,128.0,0.0,0.0,0.0,1747524687.84771,0.0, 2025-05-17 16:31:27.847
159.0,548063.7011603953,489791.45166772034,233269.68947287675,493174.7011154534,-254047.4240836411,-347022.5449827368,-321201.7203809882,-321850.72563299246,-0.38,0.538,0.752,192.0,0.0,0.0,0.0,0.0,0.0,0.0,0.0,0.0,0.0,1747524687.8478005,0.0, 2025-05-17 16:31:27.847
160.0,548092.8478351651,489813.088156353,233644.66233785896,493257.0449420268,-254158.7357710285,-346973.4605519129,-321084.4184260867,-321748.3546433872,-0.38,0.538,0.752,192.0,0.0,0.0,0.0,0.0,0.0,0.0,0.0,0.0,0.0,1747524687.8478408,0.0, 2025-05-17 16:31:27.847
161.0,548125.2131611364,489838.39033107646,233712.34342006964,493342.7862337573,-254580.1108575,-347014.4983547328,-321368.64320858044,-321889.43885438907,-0.38,0.538,0.752,192.0,0.0,0.0,0.0,0.0,0.0,0.0,0.0,0.0,0.0,1747524687.8478951,0.0, 2025-05-17 16:31:27.847
162.0,548164.5522313777,489870.30862215866,233896.52179438135,493435.2330488245,-254885.07805884816,-347027.7305874504,-321435.5196279907,-321925.6486804067,-0.38,0.538,0.752,192.0,0.0,0.0,0.0,0.0,0.0,0.0,0.0,0.0,0.0,1747524687.8479347,0.0, 2025-05-17 16:31:27.847
163.0,548199.4209527279,489897.8459713276,234078.55440122535,493522.22603824455,-255192.90628348663,-347036.67128523247,-321471.0141981857,-321959.8021459344,-0.38,0.538,0.752,192.0,0.0,0.0,0.0,0.0,0.0,0.0,0.0,0.0,0.0,1747524687.8479743,0.0, 2025-05-17 16:31:27.847
164.0,548237.5977322576,489928.4231577424,234504.57865054355,493611.63301606575,-255256.83227262885,-346980.3448892051,-321253.0399862576,-321912.95288955607,-0.38,0.538,0.752,192.0,0.0,0.0,0.0,0.0,0.0,0.0,0.0,0.0,0.0,1747524687.8480136,0.0, 2025-05-17 16:31:27.848
165.0,548264.7774535152,489948.71854170784,234714.7744554013,493689.7747146815,-255538.7324736992,-346975.2486914693,-321301.76678917016,-321940.8478666363,-0.38,0.538,0.752,192.0,0.0,0.0,0.0,0.0,0.0,0.0,0.0,0.0,0.0,1747524687.8480532,0.0, 2025-05-17 16:31:27.848
166.0,548301.2555004663,489978.4910653223,234884.2900853503,493776.7677041016,-255862.02810550077,-346989.73262187635,-321373.38177840493,-321971.42505305115,-0.38,0.538,0.752,192.0,0.0,0.0,0.0,0.0,0.0,0.0,0.0,0.0,0.0,1747524687.8480928,0.0, 2025-05-17 16:31:27.848
167.0,548339.0746520847,490008.7106238259,235138.2059023626,493863.85010049946,-256101.1917711725,-346980.52370316075,-321276.0175795576,-321958.01400637795,-0.38,0.538,0.752,192.0,0.0,0.0,0.0,0.0,0.0,0.0,0.0,0.0,0.0,1747524687.848133,0.0, 2025-05-17 16:31:27.848
168.0,548376.8043967253,490038.8407753516,235550.1932561628,493949.7702061856,-256180.2275395665,-346927.2371443793,-321056.5234490065,-321885.50494736497,-0.382,0.544,0.746,192.0,244.0,16.0,17.0,0.0,23.0,80.0,0.0,0.0,0.0,1747524687.848174,0.0, 2025-05-17 16:31:27.848
169.0,548407.7392110514,490061.1031128292,236075.99569272943,494027.5542768901,-256144.82237634927,-346833.5386316227,-321024.33693699085,-321658.8582585881,-0.382,0.544,0.746,192.0,0.0,0.0,0.0,0.0,0.0,0.0,0.0,0.0,0.0,1747524687.8482168,0.0, 2025-05-17 16:31:27.848
170.0,548431.7002811074,490075.7658571918,236580.07223368555,494098.0069754133,-256134.36175994415,-346738.76723513217,-320752.27150348085,-321491.0413612177,-0.382,0.544,0.746,192.0,0.0,0.0,0.0,0.0,0.0,0.0,0.0,0.0,0.0,1747524687.8482563,0.0, 2025-05-17 16:31:27.848
171.0,548466.7478164134,490104.3760900946,236384.807394124,494181.6919066539,-256827.98109388127,-346854.4598644328,-321428.09884883155,-321825.8704931582,-0.382,0.544,0.746,192.0,0.0,0.0,0.0,0.0,0.0,0.0,0.0,0.0,0.0,1747524687.8483083,0.0, 2025-05-17 16:31:27.848
172.0,548513.954700703,490144.2516022029,236628.352001709,494274.9433845215,-257077.3371550247,-346855.1751202554,-321385.98816227773,-321794.6674578985,-0.382,0.544,0.746,192.0,0.0,0.0,0.0,0.0,0.0,0.0,0.0,0.0,0.0,1747524687.848348,0.0, 2025-05-17 16:31:27.848
173.0,548555.7077593455,490178.3156607528,237052.1410765816,494361.75755998585,-257144.3029814128,-346799.2957591171,-321137.52617091255,-321726.18171288754,-0.382,0.544,0.746,192.0,0.0,0.0,0.0,0.0,0.0,0.0,0.0,0.0,0.0,1747524687.8483877,0.0, 2025-05-17 16:31:27.848
174.0,548584.1391782927,490198.2534168069,237388.75834807853,494434.0878050432,-257298.0829832653,-346754.5922702065,-321009.40597169474,-321682.9981425999,-0.382,0.544,0.746,192.0,0.0,0.0,0.0,0.0,0.0,0.0,0.0,0.0,0.0,1747524687.848474,0.0, 2025-05-17 16:31:27.848
175.0,548618.2032368425,490224.717882242,237617.2825833896,494511.69306179206,-257556.55855614645,-346745.3833514909,-321025.94626259163,-321714.11177088163,-0.382,0.544,0.746,192.0,0.0,0.0,0.0,0.0,0.0,0.0,0.0,0.0,0.0,1747524687.8485336,0.0, 2025-05-17 16:31:27.848
176.0,548649.2274581465,490248.4107313646,237793.41432969744,494585.722039428,-257864.65500171843,-346746.1880142913,-321052.14250709326,-321730.7414687564,-0.382,0.544,0.746,192.0,0.0,0.0,0.0,0.0,0.0,0.0,0.0,0.0,0.0,1747524687.8486056,0.0, 2025-05-17 16:31:27.848
177.0,548684.7220283416,490275.5904526223,238126.36591510367,494662.9696682656,-258013.5176197908,-346705.2396184492,-320839.6221208122,-321621.6649558145,-0.382,0.544,0.746,192.0,0.0,0.0,0.0,0.0,0.0,0.0,0.0,0.0,0.0,1747524687.8486516,0.0, 2025-05-17 16:31:27.848
178.0,548713.6898891557,490296.7799063659,238404.4216161277,494732.9753318996,-258215.66679664457,-346673.05310643354,-320748.87403832364,-321568.02076912177,-0.372,0.546,0.742,192.0,244.0,96.0,17.0,16.0,23.0,48.0,0.0,0.0,0.0,1747524687.8486917,0.0, 2025-05-17 16:31:27.848
179.0,548747.5751337499,490322.8867438897,238723.42571299383,494807.5407514025,-258377.85105441228,-346632.819966414,-320873.77558633994,-321452.7751747102,-0.372,0.546,0.742,192.0,0.0,0.0,0.0,0.0,0.0,0.0,0.0,0.0,0.0,1747524687.848734,0.0, 2025-05-17 16:31:27.848
180.0,548780.5663085659,490346.66899999016,239258.0794403648,494879.7815894821,-258319.20007696157,-346529.7337209861,-320524.1048960811,-321287.37226574094,-0.372,0.546,0.742,192.0,0.0,0.0,0.0,0.0,0.0,0.0,0.0,0.0,0.0,1747524687.8487737,0.0, 2025-05-17 16:31:27.848
181.0,548813.2892624486,490373.0440584474,239241.8073704013,494953.1847182733,-258810.4914200892,-346582.4838379006,-321001.80637857993,-321473.15996565344,-0.372,0.546,0.742,192.0,0.0,0.0,0.0,0.0,0.0,0.0,0.0,0.0,0.0,1747524687.8488135,0.0, 2025-05-17 16:31:27.848
182.0,548850.9296001112,490403.3530239288,239364.74196490552,495029.80649826606,-259162.3078778157,-346598.48768693063,-321084.6866470202,-321494.26001241925,-0.372,0.546,0.742,192.0,0.0,0.0,0.0,0.0,0.0,0.0,0.0,0.0,0.0,1747524687.848853,0.0, 2025-05-17 16:31:27.848
183.0,548891.6991819977,490437.68530341215,239402.5611165239,495110.2727783052,-259597.3622318938,-346641.49244326266,-321229.5259510906,-321606.0187346958,-0.372,0.546,0.742,192.0,0.0,0.0,0.0,0.0,0.0,0.0,0.0,0.0,0.0,1747524687.848896,0.0, 2025-05-17 16:31:27.848
184.0,548928.5348568601,490467.4578270266,239593.71323510568,495184.5699768746,-259874.97089802875,-346634.5186989926,-321175.3453225309,-321568.02076912177,-0.372,0.546,0.742,192.0,0.0,0.0,0.0,0.0,0.0,0.0,0.0,0.0,0.0,1747524687.8489373,0.0, 2025-05-17 16:31:27.848
185.0,548960.4531479422,490492.13415290526,239861.2189127468,495252.60868699657,-260074.25905159223,-346600.36523346487,-321047.76156518003,-321472.0870819196,-0.372,0.546,0.742,192.0,0.0,0.0,0.0,0.0,0.0,0.0,0.0,0.0,0.0,1747524687.8489995,0.0, 2025-05-17 16:31:27.848
186.0,548992.103218091,490516.8104787839,240098.7732528178,495320.37917618506,-260300.01167059084,-346573.72195407416,-320952.54313380044,-321427.4729999868,-0.372,0.546,0.742,192.0,0.0,0.0,0.0,0.0,0.0,0.0,0.0,0.0,0.0,1747524687.8491018,0.0, 2025-05-17 16:31:27.849
187.0,549023.8426952175,490541.4868046626,240357.0700117433,495388.23907235137,-260502.4290683781,-346540.90959321376,-320841.5890743243,-321360.77539453213,-0.372,0.546,0.742,192.0,0.0,0.0,0.0,0.0,0.0,0.0,0.0,0.0,0.0,1747524687.8491695,0.0, 2025-05-17 16:31:27.849
188.0,549054.1516606989,490565.0902468074,240577.01117718357,495454.4002359391,-260740.78807124952,-346517.2167440911,-320815.1246088892,-321356.12623168546,-0.374,0.542,0.738,192.0,244.0,80.0,16.0,240.0,23.0,16.0,0.0,0.0,0.0,1747524687.8492312,0.0, 2025-05-17 16:31:27.849
189.0,549089.0203820491,490592.5381889985,240942.6857164724,495523.3330158393,-260832.43022351628,-346455.43652241665,-320610.3826296786,-321177.66990395426,-0.374,0.542,0.738,192.0,0.0,0.0,0.0,0.0,0.0,0.0,0.0,0.0,0.0,1747524687.8493247,0.0, 2025-05-17 16:31:27.849
190.0,549124.1573243329,490620.6119800344,241214.39352207107,495593.24927249545,-261017.59207458404,-346420.746615022,-320519.2769192788,-321151.0266245636,-0.374,0.542,0.738,192.0,0.0,0.0,0.0,0.0,0.0,0.0,0.0,0.0,0.0,1747524687.849393,0.0, 2025-05-17 16:31:27.849
191.0,549157.6849410159,490649.2222129372,240965.30568186115,495663.5231570629,-261719.43685048068,-346531.07482565346,-321091.0345424455,-321507.8498730481,-0.374,0.542,0.738,192.0,0.0,0.0,0.0,0.0,0.0,0.0,0.0,0.0,0.0,1747524687.8494775,0.0, 2025-05-17 16:31:27.849
192.0,549190.2290809428,490675.68667837227,241109.07210219768,495729.77372762846,-262026.1027844075,-346527.2303256071,-321082.1832516412,-321487.6438960605,-0.374,0.542,0.738,192.0,0.0,0.0,0.0,0.0,0.0,0.0,0.0,0.0,0.0,1747524687.8495436,0.0, 2025-05-17 16:31:27.849
193.0,549225.8130581157,490705.2803880311,241235.940603726,495798.6171005508,-262350.918334832,-346531.07482565346,-321073.6895887482,-321478.0773494336,-0.374,0.542,0.738,192.0,0.0,0.0,0.0,0.0,0.0,0.0,0.0,0.0,0.0,1747524687.8496077,0.0, 2025-05-17 16:31:27.849
194.0,549255.7643956858,490728.34738830896,241526.0662467559,495860.57613618096,-262513.1025925997,-346483.06327856344,-320913.2934705369,-321339.0494989216,-0.374,0.542,0.738,192.0,0.0,0.0,0.0,0.0,0.0,0.0,0.0,0.0,0.0,1747524687.849666,0.0, 2025-05-17 16:31:27.849
195.0,549284.5534425442,490751.0567606756,241556.28580525945,495922.4457648333,-262933.13657440385,-346507.0243486195,-321056.25522807305,-321413.79373238015,-0.374,0.542,0.738,192.0,0.0,0.0,0.0,0.0,0.0,0.0,0.0,0.0,0.0,1747524687.849733,0.0, 2025-05-17 16:31:27.849
196.0,549316.2929196707,490776.8953772659,241614.042712932,495987.2658237536,-263323.7556605048,-346525.4421860507,-321128.1384382413,-321472.8023377422,-0.374,0.542,0.738,192.0,0.0,0.0,0.0,0.0,0.0,0.0,0.0,0.0,0.0,1747524687.8498025,0.0, 2025-05-17 16:31:27.849
197.0,549351.0722340432,490805.2373892352,241823.34444801143,496053.51639431913,-263560.8629656867,-346503.80569741793,-321026.84033236984,-321410.39626722294,-0.374,0.542,0.738,192.0,0.0,0.0,0.0,0.0,0.0,0.0,0.0,0.0,0.0,1747524687.8498633,0.0, 2025-05-17 16:31:27.849
198.0,549386.4773972604,490833.9370291159,242026.4771016213,496120.4822207072,-263802.17239882617,-346483.5997204304,-320940.5625987724,-321416.9229766039,-0.378,0.544,0.74,192.0,244.0,48.0,17.0,0.0,23.0,32.0,0.0,0.0,0.0,1747524687.8499255,0.0, 2025-05-17 16:31:27.849
199.0,549413.1206766511,490853.78537819214,242438.8220833328,496178.2391283797,-263830.3355968399,-346394.7291844761,-320600.5478621182,-321172.1266713294,-0.378,0.544,0.74,192.0,0.0,0.0,0.0,0.0,0.0,0.0,0.0,0.0,0.0,1747524687.8499987,0.0, 2025-05-17 16:31:27.849
200.0,549439.8533630196,490872.4714365568,242852.68698366728,496234.9231523184,-263855.1907366742,-346305.76924154395,-320304.1637306409,-320993.8491575538,-0.378,0.544,0.74,192.0,0.0,0.0,0.0,0.0,0.0,0.0,0.0,0.0,0.0,1747524687.8500705,0.0, 2025-05-17 16:31:27.850
201.0,549479.6394681501,490906.53549510665,242654.3823068598,496307.0745834201,-264494.36122111813,-346403.84869621386,-320848.0263767274,-321299.352800769,-0.378,0.544,0.74,192.0,0.0,0.0,0.0,0.0,0.0,0.0,0.0,0.0,0.0,1747524687.850171,0.0, 2025-05-17 16:31:27.850
202.0,549514.2399685669,490934.6092861425,242762.6541570013,496372.2522702518,-264828.74331816955,-346409.2131148831,-320893.8921563497,-321310.5286729966,-0.378,0.544,0.74,192.0,0.0,0.0,0.0,0.0,0.0,0.0,0.0,0.0,0.0,1747524687.850239,0.0, 2025-05-17 16:31:27.850
203.0,549547.4993643165,490961.5207864667,242761.22364535616,496436.9829221944,-265272.20192816283,-346443.54539436643,-321037.74798366404,-321407.356429977,-0.378,0.544,0.74,192.0,0.0,0.0,0.0,0.0,0.0,0.0,0.0,0.0,0.0,1747524687.850309,0.0, 2025-05-17 16:31:27.850
204.0,549579.238841443,490986.7335542123,242967.5749501676,496498.9419578245,-265505.0176984093,-346417.08092893136,-320941.8142964619,-321323.31387082505,-0.378,0.544,0.74,192.0,0.0,0.0,0.0,0.0,0.0,0.0,0.0,0.0,0.0,1747524687.85041,0.0, 2025-05-17 16:31:27.850
205.0,549621.0813070633,491022.0493104517,243031.4115323319,496572.2556796379,-265878.8282726799,-346441.39962689875,-321014.1445415192,-321361.4012433769,-0.378,0.544,0.74,192.0,0.0,0.0,0.0,0.0,0.0,0.0,0.0,0.0,0.0,1747524687.850478,0.0, 2025-05-17 16:31:27.850
206.0,549653.1784121011,491046.904450286,243221.7589881133,496634.66175015713,-266127.5584849785,-346420.47839408857,-320945.03294766345,-321306.50535899465,-0.378,0.544,0.74,192.0,0.0,0.0,0.0,0.0,0.0,0.0,0.0,0.0,0.0,1747524687.850572,0.0, 2025-05-17 16:31:27.850
207.0,549687.6000985623,491073.5477296767,243488.19178202056,496698.6771462771,-266298.5046265727,-346380.24525406904,-320792.8622714117,-321269.312056221,-0.378,0.544,0.74,192.0,0.0,0.0,0.0,0.0,0.0,0.0,0.0,0.0,0.0,1747524687.850646,0.0, 2025-05-17 16:31:27.850
208.0,549718.2666919549,491096.6147299546,243582.15851571067,496759.742112129,-266641.7380144284,-346384.8944169157,-320829.9661672075,-321327.9630336718,-0.378,0.544,0.726,192.0,244.0,48.0,17.0,0.0,22.0,176.0,0.0,0.0,0.0,1747524687.8507109,0.0, 2025-05-17 16:31:27.850
209.0,549749.4697272145,491118.8770674321,243876.39687972036,496820.270636114,-266784.5209580089,-346332.1443000012,-320627.8169903537,-321148.34441522893,-0.378,0.544,0.726,192.0,0.0,0.0,0.0,0.0,0.0,0.0,0.0,0.0,0.0,1747524687.8507793,0.0, 2025-05-17 16:31:27.850
210.0,549782.9973438976,491142.927544466,244242.60786087607,496883.1237415223,-266855.0630635098,-346262.85389218974,-320383.7359409018,-320989.8258435519,-0.378,0.544,0.726,192.0,0.0,0.0,0.0,0.0,0.0,0.0,0.0,0.0,0.0,1747524687.8508484,0.0, 2025-05-17 16:31:27.850
211.0,549807.226634887,491160.27249816334,244111.53723139016,496939.45013754966,-267426.64187272097,-346327.226916221,-320807.4356087966,-321228.00603246765,-0.378,0.544,0.726,192.0,0.0,0.0,0.0,0.0,0.0,0.0,0.0,0.0,0.0,1747524687.850917,0.0, 2025-05-17 16:31:27.850
212.0,549837.3567864129,491182.89246355207,244219.71967455384,497000.1574754903,-267758.4311674155,-346328.38920693274,-320829.6979462741,-321236.0526604715,-0.378,0.544,0.726,192.0,0.0,0.0,0.0,0.0,0.0,0.0,0.0,0.0,0.0,1747524687.8509865,0.0, 2025-05-17 16:31:27.850
213.0,549880.272135767,491218.3870337471,244309.2160593529,497074.0970461485,-268108.6382995413,-346347.3434862308,-320862.5997141123,-321250.9836257677,-0.378,0.544,0.726,192.0,0.0,0.0,0.0,0.0,0.0,0.0,0.0,0.0,0.0,1747524687.8510556,0.0, 2025-05-17 16:31:27.851
214.0,549913.0844966274,491242.973952648,244411.676455936,497137.7548143572,-268446.5966757055,-346353.6019746783,-320889.3324004808,-321260.1031375055,-0.378,0.544,0.726,192.0,0.0,0.0,0.0,0.0,0.0,0.0,0.0,0.0,0.0,1747524687.851126,0.0, 2025-05-17 16:31:27.851
215.0,549947.5061830886,491268.6337552827,244638.5913656463,497202.843094211,-268662.0674922547,-346327.31632319884,-320768.7223874,-321223.3568696209,-0.378,0.544,0.726,192.0,0.0,0.0,0.0,0.0,0.0,0.0,0.0,0.0,0.0,1747524687.8511949,0.0, 2025-05-17 16:31:27.851
216.0,549973.4342066568,491284.6376043126,244915.305962003,497257.73897859326,-268827.82802913524,-346277.4272295746,-320613.60128088016,-321119.82358930394,-0.378,0.544,0.726,192.0,0.0,0.0,0.0,0.0,0.0,0.0,0.0,0.0,0.0,1747524687.8512952,0.0, 2025-05-17 16:31:27.851
217.0,549998.1105325355,491300.7308603205,244944.54204375052,497313.4395257759,-269241.7823364476,-346297.5437995844,-320774.98087584745,-321189.73984596017,-0.378,0.544,0.726,192.0,0.0,0.0,0.0,0.0,0.0,0.0,0.0,0.0,0.0,1747524687.851372,0.0, 2025-05-17 16:31:27.851
218.0,550037.807230688,491330.7716048684,244986.56332332653,497384.07103825465,-269643.9349226874,-346328.8362418218,-320878.245935231,-321272.26248648914,-0.386,0.546,0.728,192.0,243.0,240.0,17.0,16.0,22.0,192.0,0.0,0.0,0.0,1747524687.851446,0.0, 2025-05-17 16:31:27.851
219.0,550071.7818822601,491353.2127563015,245450.5855382187,497446.92414366297,-269623.3713177885,-346235.31654302083,-320475.1992792129,-321000.4652739126,-0.386,0.546,0.728,192.0,0.0,0.0,0.0,0.0,0.0,0.0,0.0,0.0,0.0,1747524687.8515582,0.0, 2025-05-17 16:31:27.851
220.0,550099.0510104956,491368.50134950894,245925.6048113829,497502.7140978234,-269591.0059918173,-346133.0349603933,-320122.04171681905,-320802.0711901273,-0.386,0.546,0.728,192.0,0.0,0.0,0.0,0.0,0.0,0.0,0.0,0.0,0.0,1747524687.8516245,0.0, 2025-05-17 16:31:27.851
221.0,550127.8400573541,491387.992070674,245689.65979691263,497562.61677296367,-270273.4494535267,-346234.8695081317,-320747.0858987672,-321148.1656012733,-0.386,0.546,0.728,192.0,0.0,0.0,0.0,0.0,0.0,0.0,0.0,0.0,0.0,1747524687.8517177,0.0, 2025-05-17 16:31:27.851
222.0,550158.864278658,491408.2874546394,245776.29515842145,497624.3969946381,-270634.1172020575,-346247.83351991576,-320815.1246088892,-321193.49493902863,-0.386,0.546,0.728,192.0,0.0,0.0,0.0,0.0,0.0,0.0,0.0,0.0,0.0,1747524687.8517685,0.0, 2025-05-17 16:31:27.851
223.0,550192.391895341,491430.3709781612,245925.42599742723,497688.0547628469,-270933.54117078084,-346244.34664778074,-320800.90889941563,-321182.67669471225,-0.386,0.546,0.728,192.0,0.0,0.0,0.0,0.0,0.0,0.0,0.0,0.0,0.0,1747524687.851829,0.0, 2025-05-17 16:31:27.851
224.0,550223.6843375784,491449.7722923485,246042.10210348395,497749.47735661,-271269.9796283221,-346249.71106645005,-320825.5852252943,-321203.1508926333,-0.386,0.546,0.728,192.0,0.0,0.0,0.0,0.0,0.0,0.0,0.0,0.0,0.0,1747524687.851895,0.0, 2025-05-17 16:31:27.851
225.0,550256.5861054166,491469.4418274691,246152.51972109315,497811.4363922401,-271613.48123711126,-346257.84710143175,-320863.225562957,-321217.00897419563,-0.386,0.546,0.728,192.0,0.0,0.0,0.0,0.0,0.0,0.0,0.0,0.0,0.0,1747524687.8519356,0.0, 2025-05-17 16:31:27.851
226.0,550293.9582221459,491493.3134905474,246339.46971171736,497878.04459071695,-271880.36106590764,-346250.0686943613,-320807.0779808853,-321166.76225266006,-0.386,0.546,0.728,192.0,0.0,0.0,0.0,0.0,0.0,0.0,0.0,0.0,0.0,1747524687.8519747,0.0, 2025-05-17 16:31:27.851
227.0,550330.2574551413,491516.022862914,246602.77326140087,497943.1328705708,-272073.5695449793,-346221.5478684363,-320681.5505840243,-321069.75568172405,-0.386,0.546,0.728,192.0,0.0,0.0,0.0,0.0,0.0,0.0,0.0,0.0,0.0,1747524687.8520207,0.0, 2025-05-17 16:31:27.852
228.0,550357.0795484877,491529.1656886537,246766.56684476932,497999.45926659816,-272369.4172345897,-346211.4448799426,-320691.0277236733,-321107.9324612537,-0.388,0.548,0.726,192.0,243.0,224.0,17.0,32.0,22.0,176.0,0.0,0.0,0.0,1747524687.8520684,0.0, 2025-05-17 16:31:27.852
229.0,550383.9016418341,491540.9674097261,247265.368374034,498054.71277889167,-272330.4357922597,-346105.76583215786,-320281.18613734085,-320850.8874000177,-0.388,0.548,0.726,192.0,0.0,0.0,0.0,0.0,0.0,0.0,0.0,0.0,0.0,1747524687.8521123,0.0, 2025-05-17 16:31:27.852
230.0,550413.7635724263,491553.66320057673,247863.2328347245,498111.84383771947,-272189.8880231247,-345975.94690036145,-319790.6994570136,-320634.164885779,-0.388,0.548,0.726,192.0,0.0,0.0,0.0,0.0,0.0,0.0,0.0,0.0,0.0,1747524687.852173,0.0, 2025-05-17 16:31:27.852
231.0,550448.3640728431,491575.38909618725,247601.62801761963,498177.7367803737,-272911.5811480977,-346096.55691344227,-320564.69566401193,-321027.10855330335,-0.388,0.548,0.726,192.0,0.0,0.0,0.0,0.0,0.0,0.0,0.0,0.0,0.0,1747524687.852213,0.0, 2025-05-17 16:31:27.852
232.0,550484.0374569938,491596.1315150418,247677.35572783425,498242.82506022754,-273299.33921090834,-346121.8590881657,-320681.5505840243,-321063.85482118785,-0.388,0.548,0.726,192.0,0.0,0.0,0.0,0.0,0.0,0.0,0.0,0.0,0.0,1747524687.852253,0.0, 2025-05-17 16:31:27.852
233.0,550514.3464224752,491609.7213756706,247935.65248675973,498301.8336655896,-273505.8693296754,-346090.56664592825,-320557.45369880844,-321009.13775076123,-0.388,0.548,0.726,192.0,0.0,0.0,0.0,0.0,0.0,0.0,0.0,0.0,0.0,1747524687.8522923,0.0, 2025-05-17 16:31:27.852
234.0,550543.2248763115,491621.8807246543,248210.4895365822,498359.50116628426,-273693.2663551887,-346052.21105244296,-320415.3860110505,-320972.03385496547,-0.388,0.548,0.726,192.0,0.0,0.0,0.0,0.0,0.0,0.0,0.0,0.0,0.0,1747524687.852348,0.0, 2025-05-17 16:31:27.852
235.0,550577.3783418392,491639.4938992851,248454.8388069676,498421.9072368035,-273910.7041252499,-346028.0711684312,-320310.8692539775,-320920.62484271824,-0.388,0.548,0.726,192.0,0.0,0.0,0.0,0.0,0.0,0.0,0.0,0.0,0.0,1747524687.8523884,0.0, 2025-05-17 16:31:27.852
236.0,550606.7038305645,491652.1896901357,248672.0977630732,498480.647621232,-274157.64619799214,-346007.5075635324,-320291.28912583465,-320897.02140057343,-0.388,0.548,0.726,192.0,0.0,0.0,0.0,0.0,0.0,0.0,0.0,0.0,0.0,1747524687.8524408,0.0, 2025-05-17 16:31:27.852
237.0,550643.450098449,491672.48507410113,248788.3268342408,498547.70285459794,-274507.31688825093,-346023.9584474514,-320386.3287432586,-320931.62190099026,-0.388,0.548,0.726,192.0,0.0,0.0,0.0,0.0,0.0,0.0,0.0,0.0,0.0,1747524687.8524804,0.0, 2025-05-17 16:31:27.852
238.0,550669.7357499285,491681.2469579276,249065.04143059748,498602.7775529358,-274694.8033207421,-345984.17234232096,-320258.9237998633,-320849.9039232617,-0.38,0.542,0.73,192.0,244.0,32.0,16.0,240.0,22.0,208.0,0.0,0.0,0.0,1747524687.8525212,0.0, 2025-05-17 16:31:27.852
239.0,550702.7269247446,491695.2838534456,249568.7603436423,498663.7531118099,-274655.91128538986,-345886.5399225402,-319898.9713071551,-320606.44872265443,-0.38,0.542,0.73,192.0,0.0,0.0,0.0,0.0,0.0,0.0,0.0,0.0,0.0,1747524687.852564,0.0, 2025-05-17 16:31:27.852
240.0,550731.8735995142,491705.1186210059,250102.52000123504,498721.1523915712,-274585.7268078002,-345778.4468863544,-319487.2521742883,-320448.1983719109,-0.38,0.542,0.73,192.0,0.0,0.0,0.0,0.0,0.0,0.0,0.0,0.0,0.0,1747524687.8526037,0.0, 2025-05-17 16:31:27.852
241.0,550760.7520533504,491718.9767025682,249743.2827643493,498782.3961713786,-275412.2049107796,-345925.163736959,-320457.67551155994,-320929.2079125891,-0.38,0.542,0.73,192.0,0.0,0.0,0.0,0.0,0.0,0.0,0.0,0.0,0.0,1747524687.8526435,0.0, 2025-05-17 16:31:27.852
242.0,550794.6372979447,491736.3216562655,249795.4070324191,498846.4115674986,-275827.4109157814,-345958.33372573066,-320626.11825777515,-320987.0542272394,-0.38,0.542,0.73,192.0,0.0,0.0,0.0,0.0,0.0,0.0,0.0,0.0,0.0,1747524688.3253596,0.0, 2025-05-17 16:31:28.325
243.0,550830.4000890732,491754.8289006745,249949.18703427163,498911.3210333969,-276140.692966067,-345964.14517928904,-320609.7567808338,-320979.18641319114,-0.38,0.542,0.73,192.0,0.0,0.0,0.0,0.0,0.0,0.0,0.0,0.0,0.0,1747524688.3255432,0.0, 2025-05-17 16:31:28.325
244.0,550861.066682466,491767.9717264142,250172.52566486903,498971.1343015593,-276385.1316434302,-345945.3697139466,-320535.2807683088,-320911.6841449361,-0.38,0.542,0.73,192.0,0.0,0.0,0.0,0.0,0.0,0.0,0.0,0.0,0.0,1747524688.3258047,0.0, 2025-05-17 16:31:28.325
245.0,550897.544729417,491787.8200754905,250200.5994559049,499037.3848721248,-276823.5834626655,-345987.2121795669,-320664.205630327,-321006.276727471,-0.38,0.542,0.73,192.0,0.0,0.0,0.0,0.0,0.0,0.0,0.0,0.0,0.0,1747524688.32599,0.0, 2025-05-17 16:31:28.325
246.0,550926.6914041867,491799.4429826073,250362.06845785005,499095.5888146864,-277128.64007099153,-345984.17234232096,-320645.8771998736,-320977.04064572346,-0.38,0.542,0.73,192.0,0.0,0.0,0.0,0.0,0.0,0.0,0.0,0.0,0.0,1747524688.326056,0.0, 2025-05-17 16:31:28.326
247.0,550953.4240905553,491808.56249434507,250585.4964954253,499151.289361869,-277371.8270506653,-345961.37356297654,-320565.679140768,-320915.52864498243,-0.38,0.542,0.73,192.0,0.0,0.0,0.0,0.0,0.0,0.0,0.0,0.0,0.0,1747524688.326104,0.0, 2025-05-17 16:31:28.326
248.0,550988.2928119055,491824.92397128633,250848.35301021973,499213.9636533217,-277572.992750763,-345934.9985045193,-320437.2013136389,-320846.23823717097,-0.374,0.54,0.732,192.0,244.0,80.0,16.0,224.0,22.0,224.0,0.0,0.0,0.0,1747524688.3261733,0.0, 2025-05-17 16:31:28.326
249.0,551017.5288936531,491834.6693318688,251309.0671669325,499270.2006423713,-277574.4232624082,-345845.5021197203,-320068.21871617064,-320624.0618972852,-0.374,0.54,0.732,192.0,0.0,0.0,0.0,0.0,0.0,0.0,0.0,0.0,0.0,1747524688.326218,0.0, 2025-05-17 16:31:28.326
250.0,551043.3675102434,491840.7490063607,251755.65502114955,499323.5766081305,-277589.1754137487,-345757.7044674998,-319783.6363057657,-320502.11077953706,-0.374,0.54,0.732,192.0,0.0,0.0,0.0,0.0,0.0,0.0,0.0,0.0,0.0,1747524688.3262582,0.0, 2025-05-17 16:31:28.326
251.0,551075.10698737,491855.7693786346,251660.1683688365,499385.7144577163,-278145.28681579675,-345829.94530557934,-320282.61664898595,-320743.24139872094,-0.374,0.54,0.732,192.0,0.0,0.0,0.0,0.0,0.0,0.0,0.0,0.0,0.0,1747524688.3263164,0.0, 2025-05-17 16:31:28.326
252.0,551101.1244179159,491863.45837872726,251899.1532205526,499440.25271418726,-278366.47967892647,-345800.79863080964,-320226.02203202515,-320698.8955377216,-0.374,0.54,0.732,192.0,0.0,0.0,0.0,0.0,0.0,0.0,0.0,0.0,0.0,1747524688.3263571,0.0, 2025-05-17 16:31:28.326
253.0,551130.3604996634,491874.63425095496,251999.0208147789,499498.81428466015,-278729.47200888064,-345815.19315423886,-320297.8158352156,-320746.37064294465,-0.374,0.54,0.732,192.0,0.0,0.0,0.0,0.0,0.0,0.0,0.0,0.0,0.0,1747524688.326397,0.0, 2025-05-17 16:31:28.326
254.0,551171.0406745721,491897.611844255,252113.4617463901,499568.9987622498,-279074.58294327057,-345836.20379402686,-320326.24725416274,-320807.61442275223,-0.374,0.54,0.732,192.0,0.0,0.0,0.0,0.0,0.0,0.0,0.0,0.0,0.0,1747524688.3264372,0.0, 2025-05-17 16:31:28.326
255.0,551204.4788842773,491913.9733211963,252118.5579441259,499632.924751392,-279524.30004171137,-345880.1026201371,-320445.8737904876,-320947.44693606463,-0.374,0.54,0.732,192.0,0.0,0.0,0.0,0.0,0.0,0.0,0.0,0.0,0.0,1747524688.3264775,0.0, 2025-05-17 16:31:28.326
0.0,551228.9763962002,491919.8741817325,252320.1706791128,499686.1219031956,-279776.4277191672,-345859.71782919386,-320364.0664057811,-320860.0069117555,-0.374,0.54,0.732,192.0,0.0,0.0,0.0,0.0,0.0,0.0,0.0,0.0,0.0,1747524688.3265176,0.0, 2025-05-17 16:31:28.326
1.0,551262.7722338167,491935.8780307625,252534.2109840168,499748.975008604,-280018.8100360405,-345845.85974763153,-320293.07726539107,-320825.227597383,-0.374,0.54,0.732,192.0,0.0,0.0,0.0,0.0,0.0,0.0,0.0,0.0,0.0,1747524688.3265567,0.0, 2025-05-17 16:31:28.326
2.0,551293.8858620984,491949.0208565022,252738.23770740483,499809.0564976998,-280268.166097184,-345831.3758172245,-320189.3651711184,-320776.3219805148,-0.37,0.534,0.728,192.0,244.0,112.0,16.0,176.0,22.0,192.0,0.0,0.0,0.0,1747524688.3266149,0.0, 2025-05-17 16:31:28.326
3.0,551321.9596531343,491958.22977521777,253205.746794432,499865.1146727937,-280253.0563179322,-345739.107816113,-319826.37284116424,-320546.0096056473,-0.37,0.534,0.728,192.0,0.0,0.0,0.0,0.0,0.0,0.0,0.0,0.0,0.0,1747524688.326659,0.0, 2025-05-17 16:31:28.326
4.0,551348.4241185695,491965.8293683326,253452.59946019645,499920.72581299854,-280457.7982971428,-345708.88825760945,-319822.61774809577,-320521.8697216356,-0.37,0.534,0.728,192.0,0.0,0.0,0.0,0.0,0.0,0.0,0.0,0.0,0.0,1747524688.3267844,0.0, 2025-05-17 16:31:28.326
5.0,551377.3919793835,491978.8827870945,253322.51230746656,499981.522557917,-281038.854246003,-345787.8346190256,-320258.20854404074,-320748.24818947894,-0.37,0.534,0.728,192.0,0.0,0.0,0.0,0.0,0.0,0.0,0.0,0.0,0.0,1747524688.326825,0.0, 2025-05-17 16:31:28.326
6.0,551407.4327239314,491992.2044267898,253238.55915529243,500043.21337261365,-281573.0609384848,-345853.7275616798,-320501.7531516258,-320948.7880407319,-0.37,0.534,0.728,192.0,0.0,0.0,0.0,0.0,0.0,0.0,0.0,0.0,0.0,1747524688.3268645,0.0, 2025-05-17 16:31:28.326
7.0,551436.4899917233,492004.2743687957,253363.9971451756,500102.49019890913,-281893.048512107,-345858.46613150433,-320480.7425118378,-320956.03000593546,-0.37,0.534,0.728,192.0,0.0,0.0,0.0,0.0,0.0,0.0,0.0,0.0,0.0,1747524688.326923,0.0, 2025-05-17 16:31:28.326
8.0,551466.4413292934,492015.9866828903,253765.4344755929,500160.1576996038,-281937.84140799544,-345786.0464794692,-320205.54783410404,-320704.3493633687,-0.37,0.534,0.728,192.0,0.0,0.0,0.0,0.0,0.0,0.0,0.0,0.0,0.0,1747524688.3269627,0.0, 2025-05-17 16:31:28.326
9.0,551501.1312366881,492033.6892644989,253904.99876797188,500224.3519096794,-282242.45098143234,-345792.2155609388,-320249.6254741699,-320691.11713065114,-0.37,0.534,0.728,192.0,0.0,0.0,0.0,0.0,0.0,0.0,0.0,0.0,0.0,1747524688.3270023,0.0, 2025-05-17 16:31:28.327
10.0,551526.7910393227,492042.0041134362,253995.2998155713,500281.1253405959,-282593.28396240284,-345803.123212233,-320297.27939334867,-320732.33374742675,-0.37,0.534,0.728,192.0,0.0,0.0,0.0,0.0,0.0,0.0,0.0,0.0,0.0,1747524688.327057,0.0, 2025-05-17 16:31:28.327
11.0,551555.3118652478,492053.4482065974,254119.0390728759,500340.3127599136,-282911.1257685573,-345807.59356112406,-320308.8128934876,-320740.2909684528,-0.37,0.534,0.728,192.0,0.0,0.0,0.0,0.0,0.0,0.0,0.0,0.0,0.0,1747524688.3271024,0.0, 2025-05-17 16:31:28.327
12.0,551580.2564120599,492062.3889043795,254233.3011905314,500396.0133070962,-283236.92479573784,-345811.616875126,-320326.6942890518,-320765.68255015404,-0.366,0.528,0.734,192.0,244.0,144.0,16.0,128.0,22.0,240.0,0.0,0.0,0.0,1747524688.3271427,0.0, 2025-05-17 16:31:28.327
13.0,551613.4264008316,492077.14105572,254779.4884180413,500458.0617497041,-283127.2224339512,-345700.9310365833,-319862.31444624835,-320428.61824376805,-0.366,0.528,0.734,192.0,0.0,0.0,0.0,0.0,0.0,0.0,0.0,0.0,0.0,1747524688.3271856,0.0, 2025-05-17 16:31:28.327
14.0,551641.7684128009,492087.3334511916,255133.8082711468,500516.623320177,-283206.347609323,-345640.31310562056,-319671.43054860004,-320356.4668126663,-0.366,0.528,0.734,192.0,0.0,0.0,0.0,0.0,0.0,0.0,0.0,0.0,0.0,1747524688.3272257,0.0, 2025-05-17 16:31:28.327
15.0,551669.1269480141,492100.1186490201,254784.6740227549,500577.6882860289,-283989.64214201475,-345779.34095613257,-320438.45301132835,-320794.5610039903,-0.366,0.528,0.734,192.0,0.0,0.0,0.0,0.0,0.0,0.0,0.0,0.0,0.0,1747524688.3272648,0.0, 2025-05-17 16:31:28.327
16.0,551695.680820427,492109.9534165804,254945.4277688775,500634.9981588124,-284260.4558778353,-345771.38373510644,-320430.4063833245,-320754.4172709486,-0.366,0.528,0.734,192.0,0.0,0.0,0.0,0.0,0.0,0.0,0.0,0.0,0.0,1747524688.3273036,0.0, 2025-05-17 16:31:28.327
17.0,551726.8838556866,492123.9009051205,255057.36530510968,500697.7618572429,-284578.4764979454,-345781.48672360025,-320432.9991856813,-320759.06643379526,-0.366,0.528,0.734,192.0,0.0,0.0,0.0,0.0,0.0,0.0,0.0,0.0,0.0,1747524688.3273437,0.0, 2025-05-17 16:31:28.327
18.0,551748.699158275,492127.9242191225,255323.35106412784,500750.1543462461,-284740.57134873525,-345738.9290021573,-320271.2619628027,-320643.2843975168,-0.366,0.528,0.734,192.0,0.0,0.0,0.0,0.0,0.0,0.0,0.0,0.0,0.0,1747524688.3273828,0.0, 2025-05-17 16:31:28.327
19.0,551776.5941353553,492139.189498328,255523.7121014252,500809.699393475,-284970.07906080235,-345722.92515312735,-320203.22325268073,-320602.4254086525,-0.366,0.528,0.734,192.0,0.0,0.0,0.0,0.0,0.0,0.0,0.0,0.0,0.0,1747524688.3274722,0.0, 2025-05-17 16:31:28.327
20.0,551817.1849032862,492163.5976032731,255692.2442546182,500882.4766734215,-285231.326249996,-345729.72008344176,-320178.7257407577,-320610.2932227008,-0.366,0.528,0.734,192.0,0.0,0.0,0.0,0.0,0.0,0.0,0.0,0.0,0.0,1747524688.327512,0.0, 2025-05-17 16:31:28.327
21.0,551853.6629502372,492183.177731416,255919.69560619543,500951.1412323882,-285430.5249965817,-345715.5043739682,-320106.7531236116,-320576.4079781065,-0.366,0.528,0.734,192.0,0.0,0.0,0.0,0.0,0.0,0.0,0.0,0.0,0.0,1747524688.3275514,0.0, 2025-05-17 16:31:28.327
22.0,551878.249869138,492191.1349524421,256086.439619832,501008.0040702825,-285686.2289531504,-345705.1331645409,-320092.71622809366,-320554.77148947376,-0.37,0.53,0.728,192.0,244.0,112.0,16.0,144.0,22.0,192.0,0.0,0.0,0.0,1747524688.3276117,0.0, 2025-05-17 16:31:28.327
23.0,551906.234253196,492201.68497582496,256505.31131092447,501067.3703035558,-285688.55353457376,-345627.080872903,-319791.05708492483,-320371.6659988959,-0.37,0.53,0.728,192.0,0.0,0.0,0.0,0.0,0.0,0.0,0.0,0.0,0.0,1747524688.327666,0.0, 2025-05-17 16:31:28.327
24.0,551941.9076373468,492220.192220234,256804.9140936034,501135.76664158906,-285809.1635476546,-345592.7485934197,-319693.5140721219,-320392.2296037948,-0.37,0.53,0.728,192.0,0.0,0.0,0.0,0.0,0.0,0.0,0.0,0.0,0.0,1747524688.3277056,0.0, 2025-05-17 16:31:28.327
25.0,551966.9415911367,492230.8316505947,256607.50348657413,501197.0104213966,-286427.68102022185,-345690.38101320044,-320247.8373346135,-320710.87607274967,-0.37,0.53,0.728,192.0,0.0,0.0,0.0,0.0,0.0,0.0,0.0,0.0,0.0,1747524688.3277605,0.0, 2025-05-17 16:31:28.327
26.0,551992.2437658601,492240.1299762881,256822.34845427852,501255.303770936,-286632.2441854768,-345669.45978039026,-320174.5236128001,-320627.191141509,-0.37,0.53,0.728,192.0,0.0,0.0,0.0,0.0,0.0,0.0,0.0,0.0,0.0,1747524688.3278,0.0, 2025-05-17 16:31:28.327
27.0,552020.764591785,492252.4681392274,257001.5200378323,501316.9051786548,-286872.03369999334,-345662.1284082089,-320159.68205448176,-320601.0843039852,-0.37,0.53,0.728,192.0,0.0,0.0,0.0,0.0,0.0,0.0,0.0,0.0,0.0,1747524688.32784,0.0, 2025-05-17 16:31:28.327
28.0,552048.5701618874,492265.3427440337,257085.11556209516,501379.0430282406,-287207.4886807786,-345681.70853635174,-320245.2445322567,-320655.7119674339,-0.37,0.53,0.728,192.0,0.0,0.0,0.0,0.0,0.0,0.0,0.0,0.0,0.0,1747524688.3278792,0.0, 2025-05-17 16:31:28.327
29.0,552076.1969180342,492278.3961627956,257210.0171101114,501440.9126568929,-287500.92238198785,-345690.6492341339,-320259.5496487081,-320668.40775828453,-0.37,0.53,0.728,192.0,0.0,0.0,0.0,0.0,0.0,0.0,0.0,0.0,0.0,1747524688.3279183,0.0, 2025-05-17 16:31:28.327
30.0,552100.0685811125,492287.4262675556,257459.1049503213,501498.7589715432,-287668.56046540267,-345660.6978965638,-320129.9095308673,-320596.8821760276,-0.37,0.53,0.728,192.0,0.0,0.0,0.0,0.0,0.0,0.0,0.0,0.0,0.0,1747524688.327958,0.0, 2025-05-17 16:31:28.327
31.0,552127.1588953923,492298.4233258276,257843.73376890825,501558.7510536613,-287699.9423146179,-345596.1460585769,-319898.0772373769,-320455.4403371144,-0.37,0.53,0.728,192.0,0.0,0.0,0.0,0.0,0.0,0.0,0.0,0.0,0.0,1747524688.3279977,0.0, 2025-05-17 16:31:28.327
32.0,552156.842012029,492314.0695469463,257917.31571165516,501624.0181474708,-288042.81807456235,-345624.21984961274,-320050.2479136286,-320517.667593678,-0.38,0.54,0.728,192.0,244.0,32.0,16.0,224.0,22.0,192.0,0.0,0.0,0.0,1747524688.3280373,0.0, 2025-05-17 16:31:28.328
33.0,552183.306477464,492324.6195703292,258151.29377261328,501684.3678575001,-288222.526099983,-345602.58336098,-319961.28797069646,-320439.5258950622,-0.38,0.54,0.728,192.0,0.0,0.0,0.0,0.0,0.0,0.0,0.0,0.0,0.0,1747524688.3280804,0.0, 2025-05-17 16:31:28.328
34.0,552206.1946637863,492330.78865179885,258542.27048662552,501740.426032594,-288242.01682114805,-345533.4717671242,-319732.94254934107,-320298.53109103814,-0.38,0.54,0.728,192.0,0.0,0.0,0.0,0.0,0.0,0.0,0.0,0.0,0.0,1747524688.3281677,0.0, 2025-05-17 16:31:28.328
35.0,552238.9176176689,492349.38530318567,258450.27070644745,501810.16347529454,-288745.2886993037,-345613.2227913407,-320112.4751701922,-320552.08928013913,-0.38,0.54,0.728,192.0,0.0,0.0,0.0,0.0,0.0,0.0,0.0,0.0,0.0,1747524688.3282075,0.0, 2025-05-17 16:31:28.328
36.0,552271.4617575958,492367.1772917721,258503.8254861624,501878.8280342613,-289101.5755059213,-345650.7737220256,-320238.36019496445,-320629.0686880432,-0.38,0.54,0.728,192.0,0.0,0.0,0.0,0.0,0.0,0.0,0.0,0.0,0.0,1747524688.3282473,0.0, 2025-05-17 16:31:28.328
37.0,552297.0321532526,492376.8332453768,258755.50612872915,501939.5353722019,-289256.4283915077,-345625.11391939095,-320137.4197170043,-320534.3866985305,-0.38,0.54,0.728,192.0,0.0,0.0,0.0,0.0,0.0,0.0,0.0,0.0,0.0,1747524688.3283017,0.0, 2025-05-17 16:31:28.328
38.0,552324.2118745103,492388.4561524936,258872.36104874147,502002.2990706324,-289546.822255471,-345640.1342916649,-320196.1601014328,-320569.0766059252,-0.38,0.54,0.728,192.0,0.0,0.0,0.0,0.0,0.0,0.0,0.0,0.0,0.0,1747524688.328341,0.0, 2025-05-17 16:31:28.328
39.0,552354.3420260361,492404.3705945457,258844.9131065504,502069.6225249318,-289983.48593514995,-345700.6628156499,-320409.84277842555,-320739.84393356374,-0.38,0.54,0.728,192.0,0.0,0.0,0.0,0.0,0.0,0.0,0.0,0.0,0.0,1747524688.3283803,0.0, 2025-05-17 16:31:28.328
40.0,552379.912421693,492415.4570597956,258857.78771135665,502132.2968163844,-290379.6482538758,-345745.8133394496,-320545.38375680253,-320879.0505980314,-0.38,0.54,0.728,192.0,0.0,0.0,0.0,0.0,0.0,0.0,0.0,0.0,0.0,1747524688.3284316,0.0, 2025-05-17 16:31:28.328
41.0,552405.5722243276,492423.7719087329,259296.06071663628,502191.8418636134,-290347.9981837271,-345670.085629235,-320205.10079921497,-320664.0268163713,-0.38,0.54,0.728,192.0,0.0,0.0,0.0,0.0,0.0,0.0,0.0,0.0,0.0,1747524688.3284712,0.0, 2025-05-17 16:31:28.328
42.0,552428.4604106499,492429.76217624696,259755.2549547261,502249.33055035246,-290294.1751830787,-345587.9206166173,-319920.6077957878,-320537.5159427543,-0.38,0.544,0.718,192.0,244.0,32.0,17.0,0.0,22.0,112.0,0.0,0.0,0.0,1747524688.3285103,0.0, 2025-05-17 16:31:28.328
43.0,552449.4710504379,492432.6231995372,260200.7699252093,502304.31584171247,-290253.58441514784,-345507.9013714673,-319669.82122299925,-320286.1929280988,-0.38,0.544,0.718,192.0,0.0,0.0,0.0,0.0,0.0,0.0,0.0,0.0,0.0,1747524688.3285532,0.0, 2025-05-17 16:31:28.328
44.0,552470.2134692924,492435.4842228275,260651.3810934283,502359.8375749395,-290207.003379703,-345428.41856818425,-319384.881184683,-320188.560508318,-0.38,0.544,0.718,192.0,0.0,0.0,0.0,0.0,0.0,0.0,0.0,0.0,0.0,1747524688.3285923,0.0, 2025-05-17 16:31:28.328
45.0,552506.3338883321,492459.0876649723,260106.8031915192,502437.8898665774,-291158.5618446543,-345648.1809196688,-320457.5861045821,-320880.1234817652,-0.38,0.544,0.718,192.0,0.0,0.0,0.0,0.0,0.0,0.0,0.0,0.0,0.0,1747524688.3286345,0.0, 2025-05-17 16:31:28.328
46.0,552531.0102142108,492467.4025139097,260481.6866495236,502497.9713556733,-291188.3343682688,-345594.7155469317,-320263.57296271005,-320662.05986285926,-0.38,0.544,0.718,192.0,0.0,0.0,0.0,0.0,0.0,0.0,0.0,0.0,0.0,1747524688.3286853,0.0, 2025-05-17 16:31:28.328
47.0,552550.5903423537,492469.9953162665,260860.14638664084,502551.9731702773,-291215.60349650425,-345536.33279041445,-320070.6327045718,-320465.5433256082,-0.38,0.544,0.718,192.0,0.0,0.0,0.0,0.0,0.0,0.0,0.0,0.0,0.0,1747524688.3287256,0.0, 2025-05-17 16:31:28.328
48.0,552573.4785286759,492476.16439773614,261095.10792435505,502610.80296168366,-291386.1920101872,-345522.7429297856,-320017.8825876573,-320458.658988316,-0.38,0.544,0.718,192.0,0.0,0.0,0.0,0.0,0.0,0.0,0.0,0.0,0.0,1747524688.3287652,0.0, 2025-05-17 16:31:28.328
49.0,552604.7709709133,492489.3072234759,261509.24104562297,502676.6959043379,-291375.64198680426,-345467.4894174921,-319781.9375731871,-320312.92561446736,-0.38,0.544,0.718,192.0,0.0,0.0,0.0,0.0,0.0,0.0,0.0,0.0,0.0,1747524688.3289564,0.0, 2025-05-17 16:31:28.328
50.0,552627.927378169,492495.02927005646,261758.775920722,502736.5985794781,-291531.29953519104,-345453.1843010407,-319795.974468705,-320330.0023472312,-0.38,0.544,0.718,192.0,0.0,0.0,0.0,0.0,0.0,0.0,0.0,0.0,0.0,1747524688.3290029,0.0, 2025-05-17 16:31:28.329
51.0,552654.2130296484,492504.1487817942,261946.4411671688,502799.3622779087,-291746.5915377845,-345459.4427894882,-319865.89072536124,-320349.49306839623,-0.38,0.544,0.718,192.0,0.0,0.0,0.0,0.0,0.0,0.0,0.0,0.0,0.0,1747524688.3290694,0.0, 2025-05-17 16:31:28.329
52.0,552681.5715648618,492513.5365144654,262264.81941519014,502862.215383317,-291831.3493527591,-345430.65374262974,-319760.21167757653,-320255.97336959525,-0.38,0.546,0.724,192.0,244.0,32.0,17.0,16.0,22.0,160.0,0.0,0.0,0.0,1747524688.3291814,0.0, 2025-05-17 16:31:28.329
53.0,552706.3372977183,492519.88440989074,262578.2802794314,502923.4591631245,-291922.18684222543,-345401.59647483786,-319681.8017580273,-320181.94439195923,-0.38,0.546,0.724,192.0,0.0,0.0,0.0,0.0,0.0,0.0,0.0,0.0,0.0,1747524688.329226,0.0, 2025-05-17 16:31:28.329
54.0,552737.3615190223,492531.32850305183,262847.12706173985,502990.4249895126,-292056.29730895726,-345393.10281194485,-319662.7580717514,-320188.8287292515,-0.38,0.546,0.724,192.0,0.0,0.0,0.0,0.0,0.0,0.0,0.0,0.0,0.0,1747524688.3292658,0.0, 2025-05-17 16:31:28.329
55.0,552769.1009961488,492547.1535381262,262678.3266876133,503061.6823508361,-292627.7867111906,-345510.31535986846,-320159.7714614596,-320540.37696604454,-0.38,0.546,0.724,192.0,0.0,0.0,0.0,0.0,0.0,0.0,0.0,0.0,0.0,1747524688.3293486,0.0, 2025-05-17 16:31:28.329
56.0,552793.7773220274,492552.51795679546,262963.89257477433,503120.243921309,-292742.4958637352,-345491.3610805704,-320080.10984422086,-320473.67936058994,-0.38,0.546,0.724,192.0,0.0,0.0,0.0,0.0,0.0,0.0,0.0,0.0,0.0,1747524688.329393,0.0, 2025-05-17 16:31:28.329
