Sample Index, EXG Channel 0, EXG Channel 1, EXG Channel 2, EXG Channel 3, EXG Channel 4, EXG Channel 5, EXG Channel 6, EXG Channel 7, Accel Channel 0, Accel Channel 1, Accel Channel 2, Not Used, Digital Channel 0 (D11), Digital Channel 1 (D12), Digital Channel 2 (D13), Digital Channel 3 (D17), Not Used.1, Digital Channel 4 (D18), Analog Channel 0, Analog Channel 1, Analog Channel 2, Timestamp, Marker Channel, Timestamp (Formatted)
221.0,750000.0,-325680.9205628539,-366293.6826102355,-325098.61291630426,-367484.40474085865,-326606.7298181927,-326086.470614251,-327412.0184674285,0.0,0.0,0.0,192.0,0.0,0.0,0.0,0.0,0.0,0.0,0.0,0.0,0.0,1747532141.511907,0.0, 2025-05-17 18:35:41.511
222.0,750000.0,-325185.33768479084,-364377.6016685488,-324609.37793366646,-365553.0352059645,-326143.8698940122,-325584.18221285136,-326966.3246829897,0.0,0.0,0.0,192.0,0.0,0.0,0.0,0.0,0.0,0.0,0.0,0.0,0.0,1747532141.511979,0.0, 2025-05-17 18:35:41.511
223.0,750000.0,-325647.57176012656,-366367.979808805,-325075.4565090485,-367522.4921134105,-326632.8366557165,-326056.25105574745,-327446.4401538897,0.0,0.0,0.0,192.0,0.0,0.0,0.0,0.0,0.0,0.0,0.0,0.0,0.0,1747532141.512056,0.0, 2025-05-17 18:35:41.512
225.0,750000.0,-325775.69195934443,-367032.36306099454,-325187.3940452807,-368238.82081971416,-326823.80996034265,-326191.88144110225,-327610.1443302804,0.0,0.0,0.0,192.0,0.0,0.0,0.0,0.0,0.0,0.0,0.0,0.0,0.0,1747532141.5121987,0.0, 2025-05-17 18:35:41.512
226.0,750000.0,-325107.64302106417,-364528.7888680445,-324273.11829008086,-365614.1001718164,-326209.1369878217,-325514.5341771286,-327022.91929995053,0.0,0.0,0.0,192.0,0.0,0.0,0.0,0.0,0.0,0.0,0.0,0.0,0.0,1747532141.512288,0.0, 2025-05-17 18:35:41.512
227.0,750000.0,-325333.306233085,-365766.1814410903,-324851.2238086729,-366618.7663815936,-326505.9681541882,-325744.2207031513,-327292.2131171481,-0.076,-0.036,-0.948,192.0,253.0,160.0,254.0,224.0,226.0,96.0,0.0,0.0,0.0,1747532141.5123773,0.0, 2025-05-17 18:35:41.512
228.0,750000.0,-325913.11048425565,-368238.0161569138,-326092.10325385374,-369074.1502134979,-327096.76946363086,-326335.8266753944,-327879.2593335223,-0.076,-0.036,-0.948,192.0,0.0,0.0,0.0,0.0,0.0,0.0,0.0,0.0,0.0,1747532141.5124805,0.0, 2025-05-17 18:35:41.512
229.0,750000.0,-325678.2383535193,-367441.5787984823,-325952.7177754304,-368315.88963459607,-326918.9389847444,-326123.03806817986,-327684.53093582764,-0.076,-0.036,-0.948,192.0,0.0,0.0,0.0,0.0,0.0,0.0,0.0,0.0,0.0,1747532141.512574,0.0, 2025-05-17 18:35:41.512
230.0,750000.0,-324746.0812027552,-364629.4611250712,-325216.7195340061,-365391.6556109972,-326261.529476825,-325231.65049930225,-327067.44397490553,-0.076,-0.036,-0.948,192.0,0.0,0.0,0.0,0.0,0.0,0.0,0.0,0.0,0.0,1747532141.5126271,0.0, 2025-05-17 18:35:41.512
231.0,750000.0,-325037.6373574302,-365160.6279803072,-325224.3191271209,-365491.8808331348,-326384.37466435134,-325282.1654417712,-327210.40573244164,-0.076,-0.036,-0.948,192.0,0.0,0.0,0.0,0.0,0.0,0.0,0.0,0.0,0.0,1747532141.5126965,0.0, 2025-05-17 18:35:41.512
232.0,750000.0,-326233.0086509,-367842.0326521436,-325835.14759959554,-368063.3149222511,-326988.4976134894,-326606.90863214835,-327799.24008837226,-0.076,-0.036,-0.948,192.0,0.0,0.0,0.0,0.0,0.0,0.0,0.0,0.0,0.0,1747532141.5127852,0.0, 2025-05-17 18:35:41.512
233.0,750000.0,-326246.5985115288,-367612.9719749656,-325766.8406685401,-367874.66619904834,-326948.53269440326,-326728.3233080296,-327743.7183551453,-0.076,-0.036,-0.948,192.0,0.0,0.0,0.0,0.0,0.0,0.0,0.0,0.0,0.0,1747532141.5128715,0.0, 2025-05-17 18:35:41.512
234.0,750000.0,-325488.9637814717,-364796.9203945304,-325015.8220548418,-364889.2778026197,-326284.2388491916,-325958.8868569001,-327112.0580568383,-0.076,-0.036,-0.948,192.0,0.0,0.0,0.0,0.0,0.0,0.0,0.0,0.0,0.0,1747532141.5131457,0.0, 2025-05-17 18:35:41.513
235.0,750000.0,-325395.2652687151,-364787.0856269701,-324927.4879607544,-364597.81105492247,-326253.3934418432,-325864.0260534318,-327085.05714953627,-0.076,-0.036,-0.948,192.0,0.0,0.0,0.0,0.0,0.0,0.0,0.0,0.0,0.0,1747532141.5132189,0.0, 2025-05-17 18:35:41.513
236.0,750000.0,-326076.5464397128,-367699.96496438567,-325612.52422482066,-367468.1326708952,-326949.8737990706,-326559.16530599183,-327772.0603671146,-0.076,-0.036,-0.948,192.0,0.0,0.0,0.0,0.0,0.0,0.0,0.0,0.0,0.0,1747532141.5132706,0.0, 2025-05-17 18:35:41.513
237.0,750000.0,-326218.52472049295,-368345.6621582106,-325759.50929635874,-368155.6723303404,-327121.4457895095,-326707.40207521943,-327928.07554341265,-0.072,-0.046,-0.958,192.0,253.0,192.0,254.0,144.0,226.0,16.0,0.0,0.0,0.0,1747532141.5134969,0.0, 2025-05-17 18:35:41.513
238.0,750000.0,-325494.50701409666,-365461.5718676534,-325042.733555166,-365308.5965286013,-326433.3696881974,-325974.26485708536,-327235.70790716505,-0.072,-0.046,-0.958,192.0,0.0,0.0,0.0,0.0,0.0,0.0,0.0,0.0,0.0,1747532141.5135543,0.0, 2025-05-17 18:35:41.513
239.0,750000.0,-325218.5076735625,-364517.7024027947,-324771.651598412,-364268.3463416513,-326187.2322782555,-325694.3316095271,-327032.9328814665,-0.072,-0.046,-0.958,192.0,0.0,0.0,0.0,0.0,0.0,0.0,0.0,0.0,0.0,1747532141.513605,0.0, 2025-05-17 18:35:41.513
240.0,750000.0,-325853.0289951598,-367289.9445640975,-325408.94453632174,-366941.4361645504,-326847.6816234209,-326342.0851638419,-327691.0576452085,-0.072,-0.046,-0.958,192.0,0.0,0.0,0.0,0.0,0.0,0.0,0.0,0.0,0.0,1747532141.5136826,0.0, 2025-05-17 18:35:41.513
241.0,750000.0,-326126.971975204,-368471.7259969385,-325687.357865257,-368158.9803885198,-327152.6488247692,-326623.80655095656,-327975.0142067688,-0.072,-0.046,-0.958,192.0,0.0,0.0,0.0,0.0,0.0,0.0,0.0,0.0,0.0,1747532141.5137324,0.0, 2025-05-17 18:35:41.513
242.0,750000.0,-325503.0006769897,-365997.5666996917,-325069.91327642364,-365722.4614289357,-326564.35091070546,-325990.98396193795,-327370.0865948304,-0.072,-0.046,-0.958,192.0,0.0,0.0,0.0,0.0,0.0,0.0,0.0,0.0,0.0,1747532141.5137825,0.0, 2025-05-17 18:35:41.513
243.0,750000.0,-325077.24464860494,-364384.8436337523,-324649.61107368604,-364081.3963510271,-326170.4237664251,-325558.88003812794,-326991.6268577131,-0.072,-0.046,-0.958,192.0,0.0,0.0,0.0,0.0,0.0,0.0,0.0,0.0,0.0,1747532141.5138333,0.0, 2025-05-17 18:35:41.513
244.0,750000.0,-325606.44455032883,-366641.2969400045,-325181.5825917224,-366322.5610640718,-326725.4622847393,-326098.7193702125,-327549.2581783841,-0.072,-0.046,-0.958,192.0,0.0,0.0,0.0,0.0,0.0,0.0,0.0,0.0,0.0,1747532141.513903,0.0, 2025-05-17 18:35:41.513
245.0,750000.0,-325999.11999691965,-368304.89257632405,-325578.370759293,-368025.7639915662,-327148.80432472285,-326502.9283169423,-327955.3446716481,-0.072,-0.046,-0.958,192.0,0.0,0.0,0.0,0.0,0.0,0.0,0.0,0.0,0.0,1747532141.5139532,0.0, 2025-05-17 18:35:41.513
246.0,750000.0,-325471.88704870787,-366335.4356688781,-325018.23604324297,-366070.2545726603,-326680.0435400061,-325992.32506660523,-327469.32834021194,-0.072,-0.046,-0.958,192.0,0.0,0.0,0.0,0.0,0.0,0.0,0.0,0.0,0.0,1747532141.5140023,0.0, 2025-05-17 18:35:41.514
247.0,750000.0,-324695.4768533083,-364280.8633185463,-324183.6219052818,-363417.1919127932,-326189.37804572325,-325396.2487454711,-326993.86203215865,-0.068,-0.036,-0.954,192.0,253.0,224.0,254.0,224.0,226.0,48.0,0.0,0.0,0.0,1747532141.514052,0.0, 2025-05-17 18:35:41.514
248.0,750000.0,-325326.06426788145,-365906.7292102253,-324997.85125229973,-365138.186828874,-326556.9301315463,-325699.4278072629,-327339.59881539334,-0.068,-0.036,-0.954,192.0,0.0,0.0,0.0,0.0,0.0,0.0,0.0,0.0,0.0,1747532141.5141077,0.0, 2025-05-17 18:35:41.514
249.0,750000.0,-326283.7024073246,-367973.1032816295,-326084.4142537611,-368400.46863561496,-327036.9561954685,-326190.5403364349,-327819.26725140424,-0.068,-0.036,-0.954,192.0,0.0,0.0,0.0,0.0,0.0,0.0,0.0,0.0,0.0,1747532141.514218,0.0, 2025-05-17 18:35:41.514
250.0,750000.0,-325998.7623690084,-366761.7281391297,-325813.0640760737,-367273.4936801784,-326767.0365294262,-325805.8221108701,-327535.7577247331,-0.068,-0.036,-0.954,192.0,0.0,0.0,0.0,0.0,0.0,0.0,0.0,0.0,0.0,1747532141.5142744,0.0, 2025-05-17 18:35:41.514
251.0,750000.0,-325326.15367485926,-364401.92036651616,-325146.5350564164,-364631.070450672,-326210.03105759993,-324956.3664145907,-327047.9532537405,-0.068,-0.036,-0.954,192.0,0.0,0.0,0.0,0.0,0.0,0.0,0.0,0.0,0.0,1747532141.5143242,0.0, 2025-05-17 18:35:41.514
252.0,750000.0,-325545.0219565656,-365628.58410222345,-325368.62198932434,-365609.27219501405,-326466.6290839469,-325713.2858888252,-327325.1148849863,-0.068,-0.036,-0.954,192.0,0.0,0.0,0.0,0.0,0.0,0.0,0.0,0.0,0.0,1747532141.5144544,0.0, 2025-05-17 18:35:41.514
253.0,750000.0,-326135.7338590305,-368138.41678362095,-325961.926694146,-368111.0582484077,-327071.46728890744,-326946.655147869,-327905.36617104604,-0.068,-0.036,-0.954,192.0,0.0,0.0,0.0,0.0,0.0,0.0,0.0,0.0,0.0,1747532141.5145056,0.0, 2025-05-17 18:35:41.514
254.0,750000.0,-325924.10754252766,-367340.9065414556,-325755.57538933464,-367349.66842528206,-326892.2957053537,-326801.45821588737,-327704.9157267709,-0.068,-0.036,-0.954,192.0,0.0,0.0,0.0,0.0,0.0,0.0,0.0,0.0,0.0,1747532141.5145595,0.0, 2025-05-17 18:35:41.514
255.0,750000.0,-325239.5183133505,-364696.1587305259,-325077.6916834941,-364658.5183928631,-326251.6947092646,-326106.3189633273,-327083.44782393554,-0.068,-0.036,-0.954,192.0,0.0,0.0,0.0,0.0,0.0,0.0,0.0,0.0,0.0,1747532141.514648,0.0, 2025-05-17 18:35:41.514
0.0,750000.0,-325287.9768953296,-365130.9448636705,-325130.3523934308,-364945.6936056249,-326361.2182570956,-326156.2974639294,-327203.70020910504,-0.068,-0.036,-0.954,192.0,0.0,0.0,0.0,0.0,0.0,0.0,0.0,0.0,0.0,1747532141.5147371,0.0, 2025-05-17 18:35:41.514
1.0,750000.0,-325904.43800740695,-367761.3875581488,-325748.2440171533,-367548.6883579121,-326994.8455089147,-326784.20266916783,-327827.40328638593,-0.058,-0.04,-0.964,192.0,254.0,48.0,254.0,192.0,225.0,224.0,0.0,0.0,0.0,1747532141.514819,0.0, 2025-05-17 18:35:41.514
2.0,750000.0,-325878.5099838388,-367716.6840692382,-325726.4287145649,-367541.8934275977,-326999.9417066505,-326759.5263432892,-327814.886309491,-0.058,-0.04,-0.964,192.0,0.0,0.0,0.0,0.0,0.0,0.0,0.0,0.0,0.0,1747532141.514908,0.0, 2025-05-17 18:35:41.514
3.0,750000.0,-325154.58168442035,-364997.19202484994,-325029.233101515,-364771.26059189567,-326331.71395441465,-326044.8069625863,-327171.4242901116,-0.058,-0.04,-0.964,192.0,0.0,0.0,0.0,0.0,0.0,0.0,0.0,0.0,0.0,1747532141.514987,0.0, 2025-05-17 18:35:41.514
4.0,750000.0,-324883.5891346442,-364768.7571965167,-324914.7921699038,-364371.0749591679,-326256.7909070004,-325923.3922867051,-327113.57797546126,-0.058,-0.04,-0.964,192.0,0.0,0.0,0.0,0.0,0.0,0.0,0.0,0.0,0.0,1747532141.515067,0.0, 2025-05-17 18:35:41.515
5.0,750000.0,-325873.50319308083,-367466.5233452944,-325539.0316890516,-366996.4214559104,-326908.47836833936,-326558.36064319144,-327754.2683785282,-0.058,-0.04,-0.964,192.0,0.0,0.0,0.0,0.0,0.0,0.0,0.0,0.0,0.0,1747532141.5151455,0.0, 2025-05-17 18:35:41.515
6.0,750000.0,-326203.32553426333,-368015.1245612055,-325660.7145858663,-367578.1032536153,-327054.6587770771,-326681.11642374,-327883.2826475242,-0.058,-0.04,-0.964,192.0,0.0,0.0,0.0,0.0,0.0,0.0,0.0,0.0,0.0,1747532141.5152245,0.0, 2025-05-17 18:35:41.515
7.0,750000.0,-325527.1405610014,-365364.11826182826,-324991.14572896314,-364752.57453353103,-326425.9489090382,-325994.82846198423,-327254.751593441,-0.058,-0.04,-0.964,192.0,0.0,0.0,0.0,0.0,0.0,0.0,0.0,0.0,0.0,1747532141.5153036,0.0, 2025-05-17 18:35:41.515
8.0,750000.0,-325230.9352434797,-364424.9873667941,-324701.55652780016,-363376.9587727736,-326233.72390672256,-325695.6727141944,-327052.6024165872,-0.058,-0.04,-0.964,192.0,0.0,0.0,0.0,0.0,0.0,0.0,0.0,0.0,0.0,1747532141.515465,0.0, 2025-05-17 18:35:41.515
9.0,750000.0,-325781.5034129028,-366866.2448962027,-325255.0751274914,-367356.0163207074,-326802.70991357684,-326256.522686067,-327621.320202508,-0.058,-0.04,-0.964,192.0,0.0,0.0,0.0,0.0,0.0,0.0,0.0,0.0,0.0,1747532141.515547,0.0, 2025-05-17 18:35:41.515
10.0,750000.0,-326084.0566258498,-368165.06006301165,-325561.6516544404,-369337.8113910927,-327124.8432546667,-326567.56956190703,-327932.6352992815,-0.058,-0.04,-0.964,192.0,0.0,0.0,0.0,0.0,0.0,0.0,0.0,0.0,0.0,1747532141.5156517,0.0, 2025-05-17 18:35:41.515
11.0,750000.0,-325522.5808051325,-365974.32088545815,-324909.6065651902,-367153.0624810532,-326598.68319018884,-325998.67296203057,-327403.8824324468,-0.068,-0.038,-0.96,192.0,253.0,224.0,254.0,208.0,226.0,0.0,0.0,0.0,0.0,1747532141.515758,0.0, 2025-05-17 18:35:41.515
12.0,750000.0,-325020.1135897772,-364416.493703901,-324281.07551110693,-365443.6010651113,-326228.8065229424,-325551.28044501314,-327030.60830004315,-0.068,-0.038,-0.96,192.0,0.0,0.0,0.0,0.0,0.0,0.0,0.0,0.0,0.0,1747532141.5158508,0.0, 2025-05-17 18:35:41.515
13.0,750000.0,-325362.6317218103,-366268.11221457866,-325336.5248842865,-367141.43957393646,-326697.29908672563,-325956.0258336098,-327473.9775030586,-0.068,-0.038,-0.96,192.0,0.0,0.0,0.0,0.0,0.0,0.0,0.0,0.0,0.0,1747532141.5159495,0.0, 2025-05-17 18:35:41.515
14.0,750000.0,-326165.3275686893,-367900.4154086608,-326191.61322016874,-368788.3161054035,-327087.1135100262,-326345.66144295473,-327857.9804728008,-0.068,-0.038,-0.96,192.0,0.0,0.0,0.0,0.0,0.0,0.0,0.0,0.0,0.0,1747532141.516039,0.0, 2025-05-17 18:35:41.516
15.0,750000.0,-325781.41400592495,-366173.9666669329,-325759.77751729224,-367047.0258053572,-326686.39143543143,-325887.4506816209,-327451.71516558115,-0.068,-0.038,-0.96,192.0,0.0,0.0,0.0,0.0,0.0,0.0,0.0,0.0,0.0,1747532141.516129,0.0, 2025-05-17 18:35:41.516
16.0,750000.0,-325203.4873012885,-364251.09079493175,-325186.4999755025,-364782.3470571455,-326200.1962900396,-325207.33180133486,-326999.5840787392,-0.068,-0.038,-0.96,192.0,0.0,0.0,0.0,0.0,0.0,0.0,0.0,0.0,0.0,1747532141.5162144,0.0, 2025-05-17 18:35:41.516
17.0,750000.0,-325512.20959570527,-365898.6825822213,-325498.0832932095,-366124.9716430869,-326549.5093523872,-325460.08532763546,-327361.50352495955,-0.068,-0.038,-0.96,192.0,0.0,0.0,0.0,0.0,0.0,0.0,0.0,0.0,0.0,1747532141.5162947,0.0, 2025-05-17 18:35:41.516
18.0,750000.0,-325997.0636364298,-367991.2528981272,-325985.97717117995,-368198.7664936503,-327050.6354630752,-326628.81334171456,-327843.5859493716,-0.068,-0.038,-0.96,192.0,0.0,0.0,0.0,0.0,0.0,0.0,0.0,0.0,0.0,1747532141.5163808,0.0, 2025-05-17 18:35:41.516
19.0,750000.0,-325680.74174889823,-366784.8845463854,-325674.9302953399,-367013.4981886743,-326776.3348551196,-326554.15851523384,-327562.22219016816,-0.068,-0.038,-0.96,192.0,0.0,0.0,0.0,0.0,0.0,0.0,0.0,0.0,0.0,1747532141.516458,0.0, 2025-05-17 18:35:41.516
20.0,750000.0,-324937.76976320386,-364406.83775029634,-325025.38860146864,-364435.9844250661,-326216.73658093653,-325888.1659374435,-327049.5625793413,-0.068,-0.038,-0.96,192.0,0.0,0.0,0.0,0.0,0.0,0.0,0.0,0.0,0.0,1747532141.516542,0.0, 2025-05-17 18:35:41.516
21.0,750000.0,-325086.9900091875,-365425.89848350274,-325205.9906966675,-365245.3857952817,-326424.2501764596,-326068.7680326424,-327278.3550355858,-0.07,-0.028,-0.972,192.0,253.0,208.0,255.0,32.0,225.0,160.0,0.0,0.0,0.0,1747532141.5166247,0.0, 2025-05-17 18:35:41.516
22.0,750000.0,-326181.2420107415,-367961.2121535793,-325804.7492271363,-367769.5235931306,-327039.2807768918,-326676.1990399598,-327876.9347520989,-0.07,-0.028,-0.972,192.0,0.0,0.0,0.0,0.0,0.0,0.0,0.0,0.0,0.0,1747532141.5167968,0.0, 2025-05-17 18:35:41.516
23.0,750000.0,-326116.24313786544,-367413.9520423355,-325658.4794114208,-367259.188563727,-326920.7271243009,-326525.10124744195,-327743.62894816743,-0.07,-0.028,-0.972,192.0,0.0,0.0,0.0,0.0,0.0,0.0,0.0,0.0,0.0,1747532141.5168805,0.0, 2025-05-17 18:35:41.516
24.0,750000.0,-325402.1496060073,-364682.7476838527,-324951.3596238327,-364451.2730182735,-326244.8103719724,-325801.6199829125,-327097.7529403869,-0.07,-0.028,-0.972,192.0,0.0,0.0,0.0,0.0,0.0,0.0,0.0,0.0,0.0,1747532141.5169656,0.0, 2025-05-17 18:35:41.516
25.0,750000.0,-325418.5110829486,-364977.5224897292,-324971.7444147759,-364600.2250433237,-326306.8588145803,-325818.9649366099,-327154.61577828124,-0.07,-0.028,-0.972,192.0,0.0,0.0,0.0,0.0,0.0,0.0,0.0,0.0,0.0,1747532141.5171576,0.0, 2025-05-17 18:35:41.517
26.0,750000.0,-326064.2082767735,-367708.0115923896,-325620.74966678023,-367326.6014250042,-326976.15945055004,-326478.5202119971,-327812.0252862007,-0.07,-0.028,-0.972,192.0,0.0,0.0,0.0,0.0,0.0,0.0,0.0,0.0,0.0,1747532141.5172396,0.0, 2025-05-17 18:35:41.517
27.0,750000.0,-326071.8078698883,-367800.9948493237,-325632.8196087861,-367464.6457987602,-327015.49852079136,-326489.07023538,-327833.39355389995,-0.07,-0.028,-0.972,192.0,0.0,0.0,0.0,0.0,0.0,0.0,0.0,0.0,0.0,1747532141.517321,0.0, 2025-05-17 18:35:41.517
28.0,750000.0,-325387.8444895559,-365133.8058869608,-324954.7570889899,-364724.94777738425,-326376.95388519217,-325795.71912237635,-327214.78667435487,-0.07,-0.028,-0.972,192.0,0.0,0.0,0.0,0.0,0.0,0.0,0.0,0.0,0.0,1747532141.5176532,0.0, 2025-05-17 18:35:41.517
29.0,750000.0,-325192.93727790564,-364651.9916834821,-324764.23081925284,-363647.861915572,-326289.60326786083,-325597.7720734802,-327120.99875462044,-0.07,-0.028,-0.972,192.0,0.0,0.0,0.0,0.0,0.0,0.0,0.0,0.0,0.0,1747532141.51774,0.0, 2025-05-17 18:35:41.517
30.0,750000.0,-325781.8610408141,-367262.3178079507,-325356.37323336286,-367271.0796917773,-326894.88850771054,-326199.12340630573,-327714.2140524643,-0.07,-0.028,-0.972,192.0,0.0,0.0,0.0,0.0,0.0,0.0,0.0,0.0,0.0,1747532141.5179448,0.0, 2025-05-17 18:35:41.517
31.0,750000.0,-325963.6254267246,-368069.84163163207,-325542.5185611866,-368651.7022432927,-327098.28938225383,-326387.9509434642,-327907.422531536,-0.064,-0.036,-0.974,192.0,254.0,0.0,254.0,224.0,225.0,144.0,0.0,0.0,0.0,1747532141.5180836,0.0, 2025-05-17 18:35:41.518
32.0,750000.0,-325205.63306875626,-365570.2013457062,-324757.7935168497,-366112.0970382806,-326509.63384027884,-325730.6308425225,-327305.08772195433,-0.064,-0.036,-0.974,192.0,0.0,0.0,0.0,0.0,0.0,0.0,0.0,0.0,0.0,1747532141.5181873,0.0, 2025-05-17 18:35:41.518
33.0,750000.0,-324780.7711101498,-364456.10099507583,-324282.0589878629,-364721.3714982714,-326263.3176163814,-325261.3336159389,-327048.13206769613,-0.064,-0.036,-0.974,192.0,0.0,0.0,0.0,0.0,0.0,0.0,0.0,0.0,0.0,1747532141.518273,0.0, 2025-05-17 18:35:41.518
34.0,750000.0,-325847.84339044616,-366609.91509078926,-325479.6654557783,-366713.0013362171,-326772.75857600674,-325710.15664460143,-327556.6789575433,-0.064,-0.036,-0.974,192.0,0.0,0.0,0.0,0.0,0.0,0.0,0.0,0.0,0.0,1747532141.5183585,0.0, 2025-05-17 18:35:41.518
35.0,750000.0,-326394.9246877342,-367826.0288031136,-326165.4169756671,-367958.2617233112,-327065.6558353491,-326656.5295048392,-327836.88042603503,-0.064,-0.036,-0.974,192.0,0.0,0.0,0.0,0.0,0.0,0.0,0.0,0.0,0.0,1747532141.518443,0.0, 2025-05-17 18:35:41.518
36.0,750000.0,-325840.5120182648,-365751.5186967277,-325621.8225505141,-365791.7518367472,-326565.06616652803,-326268.8608490063,-327373.6628739432,-0.064,-0.036,-0.974,192.0,0.0,0.0,0.0,0.0,0.0,0.0,0.0,0.0,0.0,1747532141.5185273,0.0, 2025-05-17 18:35:41.518
37.0,750000.0,-325324.812570192,-364253.5047833329,-325111.21930017706,-363450.9877504096,-326169.5296966469,-325746.0088427077,-327033.3799163556,-0.064,-0.036,-0.974,192.0,0.0,0.0,0.0,0.0,0.0,0.0,0.0,0.0,0.0,1747532141.5187118,0.0, 2025-05-17 18:35:41.518
38.0,750000.0,-325739.57154030463,-366288.1393776106,-325530.0909912695,-365714.325393954,-326647.23117914575,-326168.90384780214,-327473.7092821252,-0.064,-0.036,-0.974,192.0,0.0,0.0,0.0,0.0,0.0,0.0,0.0,0.0,0.0,1747532141.5187688,0.0, 2025-05-17 18:35:41.518
39.0,750000.0,-326219.0611623599,-368320.6282044206,-326013.0674854598,-368817.37337319535,-327126.63139422314,-326659.3011211516,-327955.1658576925,-0.064,-0.036,-0.974,192.0,0.0,0.0,0.0,0.0,0.0,0.0,0.0,0.0,0.0,1747532141.5188208,0.0, 2025-05-17 18:35:41.518
40.0,750000.0,-325798.9377735779,-366684.7487312256,-325599.11317814747,-367258.5627148823,-326744.2377500817,-326234.97560441203,-327557.2153994102,-0.064,-0.036,-0.974,192.0,0.0,0.0,0.0,0.0,0.0,0.0,0.0,0.0,0.0,1747532141.5189376,0.0, 2025-05-17 18:35:41.518
41.0,750000.0,-325180.5991149663,-364394.8572152683,-324986.4965661164,-364829.3751274795,-326202.69968541857,-325606.53395730664,-327026.5849860412,-0.062,-0.034,-0.97,192.0,254.0,16.0,254.0,240.0,225.0,176.0,0.0,0.0,0.0,1747532141.518988,0.0, 2025-05-17 18:35:41.518
42.0,750000.0,-325462.4099090588,-365837.1705814804,-325270.1849067432,-366056.7541190093,-326542.80382905056,-325893.70917006844,-327362.93403660465,-0.062,-0.034,-0.97,192.0,0.0,0.0,0.0,0.0,0.0,0.0,0.0,0.0,0.0,1747532141.5190473,0.0, 2025-05-17 18:35:41.519
43.0,750000.0,-326036.67092760454,-368277.3552271552,-325847.48576253484,-368489.6073925027,-327128.2407198239,-326480.04013062007,-327940.8607412411,-0.062,-0.034,-0.97,192.0,0.0,0.0,0.0,0.0,0.0,0.0,0.0,0.0,0.0,1747532141.5191612,0.0, 2025-05-17 18:35:41.519
44.0,750000.0,-325793.93098281993,-367347.43325083656,-325610.4678643308,-367602.3325446048,-326918.5813568332,-326235.6908602346,-327706.7932733051,-0.062,-0.034,-0.97,192.0,0.0,0.0,0.0,0.0,0.0,0.0,0.0,0.0,0.0,1747532141.519249,0.0, 2025-05-17 18:35:41.519
45.0,750000.0,-325098.9705442155,-364661.4688231312,-324938.57442600426,-364941.4914776673,-326280.7519770565,-325548.95586358977,-327059.0397189904,-0.062,-0.034,-0.97,192.0,0.0,0.0,0.0,0.0,0.0,0.0,0.0,0.0,0.0,1747532141.5193417,0.0, 2025-05-17 18:35:41.519
46.0,750000.0,-325062.5819042423,-365299.1193889522,-325043.3594040107,-365439.5777511094,-326443.2044557577,-325652.48914390674,-327234.2773955199,-0.062,-0.034,-0.97,192.0,0.0,0.0,0.0,0.0,0.0,0.0,0.0,0.0,0.0,1747532141.5194368,0.0, 2025-05-17 18:35:41.519
47.0,750000.0,-326020.04122972983,-367963.0897001135,-325667.3307022251,-368063.13610829547,-327086.13003327016,-326286.2058027036,-327865.0436240487,-0.062,-0.034,-0.97,192.0,0.0,0.0,0.0,0.0,0.0,0.0,0.0,0.0,0.0,1747532141.5195322,0.0, 2025-05-17 18:35:41.519
48.0,750000.0,-326104.7990447044,-367704.70353421016,-325594.1957943673,-367845.34071032295,-327037.3138233797,-326206.3653715093,-327799.6871232614,-0.062,-0.034,-0.97,192.0,0.0,0.0,0.0,0.0,0.0,0.0,0.0,0.0,0.0,1747532141.519618,0.0, 2025-05-17 18:35:41.519
49.0,750000.0,-325367.01266372355,-364873.0951396341,-324862.7573088118,-364937.11053575407,-326348.16483833373,-325304.78540716,-327164.80817375286,-0.062,-0.034,-0.97,192.0,0.0,0.0,0.0,0.0,0.0,0.0,0.0,0.0,0.0,1747532141.519734,0.0, 2025-05-17 18:35:41.519
50.0,750000.0,-325266.6980346081,-364872.2904768336,-324766.01895880926,-364611.6691364848,-326325.1872450337,-325281.0925580374,-327187.15991820814,-0.062,-0.034,-0.97,192.0,0.0,0.0,0.0,0.0,0.0,0.0,0.0,0.0,0.0,1747532141.5198262,0.0, 2025-05-17 18:35:41.519
51.0,750000.0,-325889.417635133,-367604.5677190504,-325391.5101756466,-367238.35673789465,-326960.8708573426,-326648.125248924,-327802.7269605073,-0.054,-0.036,-0.976,192.0,254.0,80.0,254.0,224.0,225.0,128.0,0.0,0.0,0.0,1747532141.5199227,0.0, 2025-05-17 18:35:41.519
52.0,750000.0,-325974.71189197444,-368013.78345653816,-325480.0230836896,-367689.0573130914,-327075.66941686504,-326964.35772947763,-327896.06784535263,-0.054,-0.036,-0.976,192.0,0.0,0.0,0.0,0.0,0.0,0.0,0.0,0.0,0.0,1747532141.520052,0.0, 2025-05-17 18:35:41.520
53.0,750000.0,-325249.3530809108,-365274.2642491179,-324618.4080384264,-364859.8629069165,-326417.4552461452,-326247.58198828483,-327257.3443957978,-0.054,-0.036,-0.976,192.0,0.0,0.0,0.0,0.0,0.0,0.0,0.0,0.0,0.0,1747532141.5201025,0.0, 2025-05-17 18:35:41.520
54.0,750000.0,-324776.65838917,-364524.1397051978,-324255.2368945166,-363332.7023187521,-326275.2981514094,-325950.57200796274,-327118.3165452858,-0.054,-0.036,-0.976,192.0,0.0,0.0,0.0,0.0,0.0,0.0,0.0,0.0,0.0,1747532141.5201514,0.0, 2025-05-17 18:35:41.520
55.0,750000.0,-325672.1586790274,-367031.647805172,-325548.6876426563,-366765.0361973091,-326836.32693723764,-326501.8554332084,-327679.345331114,-0.054,-0.036,-0.976,192.0,0.0,0.0,0.0,0.0,0.0,0.0,0.0,0.0,0.0,1747532141.5202415,0.0, 2025-05-17 18:35:41.520
56.0,750000.0,-326237.478999791,-368044.80767784215,-326141.54531258886,-368492.6472297487,-327079.06688202225,-326740.5720639911,-327912.96576416085,-0.054,-0.036,-0.976,192.0,0.0,0.0,0.0,0.0,0.0,0.0,0.0,0.0,0.0,1747532141.520326,0.0, 2025-05-17 18:35:41.520
57.0,750000.0,-325616.4581318448,-365644.2303233421,-325522.4019911769,-366030.7366884633,-326526.53175908705,-326102.0274283919,-327344.42679219565,-0.054,-0.036,-0.976,192.0,0.0,0.0,0.0,0.0,0.0,0.0,0.0,0.0,0.0,1747532141.5204437,0.0, 2025-05-17 18:35:41.520
58.0,750000.0,-325203.6661152442,-364402.9038432722,-325115.242614179,-364438.2195995116,-326230.505255521,-325683.7815861442,-327057.8774282786,-0.054,-0.036,-0.976,192.0,0.0,0.0,0.0,0.0,0.0,0.0,0.0,0.0,0.0,1747532141.5205345,0.0, 2025-05-17 18:35:41.520
59.0,750000.0,-325727.94863318786,-366787.7455696757,-325642.2967484351,-366659.0889285909,-326776.5136690752,-326218.7035344486,-327608.1773767683,-0.054,-0.036,-0.976,192.0,0.0,0.0,0.0,0.0,0.0,0.0,0.0,0.0,0.0,1747532141.5206227,0.0, 2025-05-17 18:35:41.520
60.0,750000.0,-326122.6804402686,-368470.474299249,-326040.5154276509,-368371.23255386745,-327191.0938252323,-326624.61121375696,-328008.0947885627,-0.054,-0.036,-0.976,192.0,0.0,0.0,0.0,0.0,0.0,0.0,0.0,0.0,0.0,1747532141.5207057,0.0, 2025-05-17 18:35:41.520
61.0,750000.0,-325612.7924457541,-366454.97279822506,-325535.5448169166,-366398.2887742864,-326717.3262497576,-326109.1799866176,-327512.78013143304,-0.064,-0.036,-0.968,192.0,254.0,0.0,254.0,224.0,225.0,192.0,0.0,0.0,0.0,1747532141.5207903,0.0, 2025-05-17 18:35:41.520
62.0,750000.0,-325074.5624392703,-364384.0389709519,-325002.5898221242,-364298.11886526574,-326211.2827552894,-325562.18809630733,-327024.17099764006,-0.064,-0.036,-0.968,192.0,0.0,0.0,0.0,0.0,0.0,0.0,0.0,0.0,0.0,1747532141.5208883,0.0, 2025-05-17 18:35:41.520
63.0,750000.0,-325475.5527347985,-366242.00537705485,-325407.6928386322,-366020.1866650804,-326639.81039998657,-325971.6720547285,-327475.0503867925,-0.064,-0.036,-0.968,192.0,0.0,0.0,0.0,0.0,0.0,0.0,0.0,0.0,0.0,1747532141.520977,0.0, 2025-05-17 18:35:41.520
64.0,750000.0,-325996.08015967376,-368445.88738034817,-325930.9918798199,-368234.6186917566,-327188.3222089198,-326503.0177239201,-328003.44562571595,-0.064,-0.036,-0.968,192.0,0.0,0.0,0.0,0.0,0.0,0.0,0.0,0.0,0.0,1747532141.521069,0.0, 2025-05-17 18:35:41.521
65.0,750000.0,-325613.1500736654,-367038.621549442,-325576.1355848474,-366869.1953264708,-326862.07614685013,-326138.95251023205,-327651.71857496724,-0.064,-0.036,-0.968,192.0,0.0,0.0,0.0,0.0,0.0,0.0,0.0,0.0,0.0,1747532141.521161,0.0, 2025-05-17 18:35:41.521
66.0,750000.0,-324778.9829705934,-364531.8287052905,-324937.0545073813,-364262.1772601816,-326257.3273488674,-325483.1523279133,-327058.3244631677,-0.064,-0.036,-0.968,192.0,0.0,0.0,0.0,0.0,0.0,0.0,0.0,0.0,0.0,1747532141.5213592,0.0, 2025-05-17 18:35:41.521
67.0,750000.0,-325313.45788400865,-365694.298230922,-325145.5515796604,-365031.52430433326,-326520.98852646217,-325692.364656015,-327332.267443212,-0.064,-0.036,-0.968,192.0,0.0,0.0,0.0,0.0,0.0,0.0,0.0,0.0,0.0,1747532141.521448,0.0, 2025-05-17 18:35:41.521
68.0,750000.0,-326410.7497228086,-368196.4419122269,-325730.7202495003,-368324.47270446696,-327121.80341742083,-326288.1727562157,-327919.8501014531,-0.064,-0.036,-0.968,192.0,0.0,0.0,0.0,0.0,0.0,0.0,0.0,0.0,0.0,1747532141.5215335,0.0, 2025-05-17 18:35:41.521
69.0,750000.0,-326255.5392093109,-367442.741089194,-325532.86260758195,-367756.4701743687,-326958.09924103017,-326061.5260674389,-327736.834017853,-0.064,-0.036,-0.968,192.0,0.0,0.0,0.0,0.0,0.0,0.0,0.0,0.0,0.0,1747532141.52167,0.0, 2025-05-17 18:35:41.521
70.0,750000.0,-325522.4019911769,-364683.99938154215,-324806.87794767355,-364865.85317443055,-326329.5681869469,-325121.1434747152,-327137.80726645084,-0.064,-0.036,-0.968,192.0,0.0,0.0,0.0,0.0,0.0,0.0,0.0,0.0,0.0,1747532141.5217566,0.0, 2025-05-17 18:35:41.521
71.0,750000.0,-325559.1482590614,-365209.2653762419,-324848.98863422737,-365105.2850610358,-326430.41925792926,-325502.82186303404,-327252.6952329511,-0.072,-0.032,-0.968,192.0,253.0,192.0,255.0,0.0,225.0,192.0,0.0,0.0,0.0,1747532141.521842,0.0, 2025-05-17 18:35:41.521
72.0,750000.0,-326180.07972002984,-367903.99168777367,-325473.0493394195,-367729.0222321776,-327066.1028702382,-326851.3473095116,-327869.2457520063,-0.072,-0.032,-0.968,192.0,0.0,0.0,0.0,0.0,0.0,0.0,0.0,0.0,0.0,1747532141.5219605,0.0, 2025-05-17 18:35:41.521
73.0,750000.0,-326143.6910800566,-367823.0783728455,-325426.46830397466,-367685.21281304513,-327058.5926841012,-326950.3208339597,-327847.5198563957,-0.072,-0.032,-0.968,192.0,0.0,0.0,0.0,0.0,0.0,0.0,0.0,0.0,0.0,1747532141.5220456,0.0, 2025-05-17 18:35:41.522
74.0,750000.0,-325396.785187338,-364991.5593852472,-324441.65044327383,-364670.6777418468,-326374.4504898132,-326190.71915039053,-327209.15403475217,-0.072,-0.032,-0.968,192.0,0.0,0.0,0.0,0.0,0.0,0.0,0.0,0.0,0.0,1747532141.52213,0.0, 2025-05-17 18:35:41.522
75.0,750000.0,-325232.3657551248,-364808.81152258057,-324451.3958038564,-363740.57695157256,-326337.34659401735,-326022.72343906446,-327161.7683365069,-0.072,-0.032,-0.968,192.0,0.0,0.0,0.0,0.0,0.0,0.0,0.0,0.0,0.0,1747532141.522215,0.0, 2025-05-17 18:35:41.522
76.0,750000.0,-325841.1378671096,-367534.3832414607,-325860.18155338545,-367491.8255200178,-326953.7182991169,-326643.118458166,-327776.1730880944,-0.072,-0.032,-0.968,192.0,0.0,0.0,0.0,0.0,0.0,0.0,0.0,0.0,0.0,1747532141.5223,0.0, 2025-05-17 18:35:41.522
77.0,750000.0,-325972.1190896176,-368131.5324463287,-326228.001860142,-368583.5741261928,-327104.19024279003,-326778.9276574764,-327914.93271767296,-0.072,-0.032,-0.968,192.0,0.0,0.0,0.0,0.0,0.0,0.0,0.0,0.0,0.0,1747532141.522385,0.0, 2025-05-17 18:35:41.522
78.0,750000.0,-325206.7953594679,-365442.61758835526,-325541.26686349715,-365865.0655585606,-326460.72822341067,-326076.8146606463,-327278.62325651926,-0.072,-0.032,-0.968,192.0,0.0,0.0,0.0,0.0,0.0,0.0,0.0,0.0,0.0,1747532141.52247,0.0, 2025-05-17 18:35:41.522
79.0,750000.0,-324806.5203197623,-364605.32124105946,-325255.790383314,-364778.7707780327,-326275.029930476,-325784.18562223745,-327103.206766034,-0.072,-0.032,-0.968,192.0,0.0,0.0,0.0,0.0,0.0,0.0,0.0,0.0,0.0,1747532141.5225556,0.0, 2025-05-17 18:35:41.522
80.0,750000.0,-325945.8334381382,-367226.7338307778,-325841.406088043,-367245.8669240317,-326889.2558681078,-326379.8149084824,-327715.6445641094,-0.072,-0.032,-0.968,192.0,0.0,0.0,0.0,0.0,0.0,0.0,0.0,0.0,0.0,1747532141.5226407,0.0, 2025-05-17 18:35:41.522
81.0,750000.0,-326455.7214326527,-368416.5618916228,-326120.8028937344,-368467.70268293656,-327183.4048251396,-326663.86087702046,-327995.39899771207,-0.074,-0.036,-0.97,192.0,253.0,176.0,254.0,224.0,225.0,176.0,0.0,0.0,0.0,1747532141.5227487,0.0, 2025-05-17 18:35:41.522
82.0,750000.0,-325858.57222778467,-366043.70070024737,-325529.46514242474,-366137.1309920706,-326620.40908579936,-326058.66504414857,-327412.55490929546,-0.074,-0.036,-0.97,192.0,0.0,0.0,0.0,0.0,0.0,0.0,0.0,0.0,0.0,1747532141.5228412,0.0, 2025-05-17 18:35:41.522
83.0,750000.0,-325422.17676903924,-364429.54712266295,-325099.14935817115,-364456.4586229872,-326225.4090577852,-325617.44160860084,-327040.0854396922,-0.074,-0.036,-0.97,192.0,0.0,0.0,0.0,0.0,0.0,0.0,0.0,0.0,0.0,1747532141.5229254,0.0, 2025-05-17 18:35:41.522
84.0,750000.0,-325917.84905408014,-366654.9762076112,-325597.9508874358,-366565.3904158343,-326760.95685493434,-326123.84273098025,-327572.8616205289,-0.074,-0.036,-0.97,192.0,0.0,0.0,0.0,0.0,0.0,0.0,0.0,0.0,0.0,1747532141.523087,0.0, 2025-05-17 18:35:41.523
85.0,750000.0,-326360.86062918435,-368537.7977535484,-326045.34340445325,-368472.3518457832,-327229.4494187176,-326578.56662017904,-328026.69143994944,-0.074,-0.036,-0.97,192.0,0.0,0.0,0.0,0.0,0.0,0.0,0.0,0.0,0.0,1747532141.5231829,0.0, 2025-05-17 18:35:41.523
86.0,750000.0,-325899.2524026933,-366724.98187124514,-325590.53010827664,-366696.550452298,-326803.06754148816,-326112.488044797,-327580.0141787546,-0.074,-0.036,-0.97,192.0,0.0,0.0,0.0,0.0,0.0,0.0,0.0,0.0,0.0,1747532141.5232828,0.0, 2025-05-17 18:35:41.523
87.0,750000.0,-325308.71931418416,-364458.78320441046,-325006.6131361262,-364384.12837792974,-326246.24088361755,-325513.1036654835,-327059.3973469016,-0.074,-0.036,-0.97,192.0,0.0,0.0,0.0,0.0,0.0,0.0,0.0,0.0,0.0,1747532141.5234635,0.0, 2025-05-17 18:35:41.523
88.0,750000.0,-325680.2947140092,-366177.81116697926,-325381.8542220419,-365982.72514137335,-326644.72778376675,-325891.29518166726,-327455.20203771617,-0.074,-0.036,-0.97,192.0,0.0,0.0,0.0,0.0,0.0,0.0,0.0,0.0,0.0,1747532141.5235505,0.0, 2025-05-17 18:35:41.523
0.0,0.0,0.0,0.0,0.0,0.0,0.0,0.0,0.0,-0.074,-0.036,-0.97,192.0,0.0,0.0,0.0,0.0,0.0,0.0,0.0,0.0,0.0,1747532141.5589886,0.0, 2025-05-17 18:35:41.558
1.0,750000.0,-630878.5236929088,-706766.272397789,-631326.8996866823,-706422.5919750443,-631284.967814084,-631459.3114208354,-631602.9884341942,0.048,0.036,-0.976,192.0,1.0,128.0,1.0,32.0,225.0,128.0,0.0,0.0,0.0,1747532141.5750904,0.0, 2025-05-17 18:35:41.575
2.0,750000.0,-631101.1470676836,-707016.1649007994,-631550.059503324,-706672.0374431656,-631507.591188859,-631682.3818304994,-631825.8800299026,0.048,0.036,-0.976,192.0,0.0,0.0,0.0,0.0,0.0,0.0,0.0,0.0,0.0,1747532141.6810143,0.0, 2025-05-17 18:35:41.681
3.0,750000.0,-631262.526662651,-707197.2140308875,-631711.617912247,-706853.0865732535,-631669.596632671,-631843.9402394224,-631987.617252781,0.048,0.036,-0.976,192.0,0.0,0.0,0.0,0.0,0.0,0.0,0.0,0.0,0.0,1747532141.681147,0.0, 2025-05-17 18:35:41.681
4.0,750000.0,-631115.8992190241,-707032.9734126298,-631564.7222476867,-706689.0247689516,-631523.6844448667,-631697.0445748621,-631841.079216132,0.048,0.036,-0.976,192.0,0.0,0.0,0.0,0.0,0.0,0.0,0.0,0.0,0.0,1747532141.6812372,0.0, 2025-05-17 18:35:41.681
5.0,750000.0,-630960.1522636595,-706858.1827709894,-631408.6176644108,-706514.6811622002,-631367.043419724,-631541.1188055419,-631685.0640398341,0.048,0.036,-0.976,192.0,0.0,0.0,0.0,0.0,0.0,0.0,0.0,0.0,0.0,1747532141.6813245,0.0, 2025-05-17 18:35:41.681
6.0,750000.0,-631148.8009868624,-707069.362052603,-631597.5346085471,-706725.5922228805,-631555.2451080376,-631730.125156656,-631873.8915769925,0.048,0.036,-0.976,192.0,0.0,0.0,0.0,0.0,0.0,0.0,0.0,0.0,0.0,1747532141.6814115,0.0, 2025-05-17 18:35:41.681
7.0,750000.0,-631351.9336404721,-707296.8134041802,-631800.3096342456,-706952.7753535241,-631759.0036104922,-631932.7213683989,-632076.5771957132,0.048,0.036,-0.976,192.0,0.0,0.0,0.0,0.0,0.0,0.0,0.0,0.0,0.0,1747532141.6815128,0.0, 2025-05-17 18:35:41.681
8.0,750000.0,-631255.4635114031,-707188.8097749723,-631703.6606912209,-706844.8611312939,-631662.8911093344,-631836.1618323519,-631980.2858805998,0.11,0.074,-0.972,192.0,3.0,112.0,2.0,80.0,225.0,160.0,0.0,0.0,0.0,1747532141.6815636,0.0, 2025-05-17 18:35:41.681
9.0,750000.0,-631058.8575671742,-706968.6897955764,-631507.054746992,-706624.294117009,-631465.3016883495,-631639.4664811452,-631783.2329014818,0.11,0.074,-0.972,192.0,0.0,0.0,0.0,0.0,0.0,0.0,0.0,0.0,0.0,1747532141.681618,0.0, 2025-05-17 18:35:41.681
10.0,750000.0,-631181.5239407449,-707106.376541421,-631630.4363763853,-706761.8020488981,-631587.9680619203,-631762.6692965829,-631905.9886820304,0.11,0.074,-0.972,192.0,0.0,0.0,0.0,0.0,0.0,0.0,0.0,0.0,0.0,1747532141.6817677,0.0, 2025-05-17 18:35:41.681
11.0,750000.0,-631418.7206529046,-707371.3788236831,-631867.5436815672,-707027.5195869827,-631825.611808969,-631999.8660087426,-632143.18539419,0.11,0.074,-0.972,192.0,0.0,0.0,0.0,0.0,0.0,0.0,0.0,0.0,0.0,1747532141.6818185,0.0, 2025-05-17 18:35:41.681
12.0,750000.0,-631374.8218267944,-707321.7579509924,-631822.9295996344,-706978.2563422032,-631782.2494247258,-631955.6989616989,-632099.1077541242,0.11,0.074,-0.972,192.0,0.0,0.0,0.0,0.0,0.0,0.0,0.0,0.0,0.0,1747532141.6818683,0.0, 2025-05-17 18:35:41.681
13.0,750000.0,-631164.3578010033,-707086.5281923447,-631612.6443877988,-706742.6689556442,-631571.3383640455,-631744.9667149743,-631888.8225422887,0.11,0.074,-0.972,192.0,0.0,0.0,0.0,0.0,0.0,0.0,0.0,0.0,0.0,1747532141.6819427,0.0, 2025-05-17 18:35:41.681
14.0,750000.0,-631231.2342204135,-707161.898274648,-631679.7890281426,-706817.0555611915,-631637.4101206553,-631812.0219483402,-631955.8777756545,0.11,0.074,-0.972,192.0,0.0,0.0,0.0,0.0,0.0,0.0,0.0,0.0,0.0,1747532141.681994,0.0, 2025-05-17 18:35:41.681
15.0,750000.0,-631485.2394444037,-707446.480685053,-631934.0624730662,-707101.1909367074,-631891.5941586011,-632066.1165793082,-632210.0618136004,0.11,0.074,-0.972,192.0,0.0,0.0,0.0,0.0,0.0,0.0,0.0,0.0,0.0,1747532141.6820436,0.0, 2025-05-17 18:35:41.682
16.0,750000.0,-631503.0314329901,-707465.971406218,-631951.0497988522,-707121.4863206728,-631909.9225890544,-632083.4615330055,-632227.3173603198,0.11,0.074,-0.972,192.0,0.0,0.0,0.0,0.0,0.0,0.0,0.0,0.0,0.0,1747532141.682093,0.0, 2025-05-17 18:35:41.682
17.0,750000.0,-631283.000860572,-707219.4763683649,-631731.5556683011,-706875.8853525979,-631690.4284585033,-631864.2356233879,-632008.0020437243,0.11,0.074,-0.972,192.0,0.0,0.0,0.0,0.0,0.0,0.0,0.0,0.0,0.0,1747532141.682145,0.0, 2025-05-17 18:35:41.682
18.0,750000.0,-631284.0737443059,-707221.4433218769,-631733.0755869241,-706876.868829354,-631690.9649003702,-631865.6661350329,-632009.3431483917,0.156,0.102,-0.972,192.0,4.0,224.0,3.0,48.0,225.0,160.0,0.0,0.0,0.0,1747532141.6821964,0.0, 2025-05-17 18:35:41.682
19.0,750000.0,-631550.059503324,-707518.989744066,-631998.8825319866,-707174.0576236317,-631956.5036244993,-632131.3836731176,-632275.0606864764,0.156,0.102,-0.972,192.0,0.0,0.0,0.0,0.0,0.0,0.0,0.0,0.0,0.0,1747532141.6822505,0.0, 2025-05-17 18:35:41.682
20.0,750000.0,-631610.1409924199,-707585.9555704541,-632058.7852071268,-707241.6492988645,-632017.1215554621,-632190.8393133688,-632335.2315825501,0.156,0.102,-0.972,192.0,0.0,0.0,0.0,0.0,0.0,0.0,0.0,0.0,0.0,1747532141.6822996,0.0, 2025-05-17 18:35:41.682
21.0,750000.0,-631400.9286643182,-707351.6198815847,-631849.125844136,-707007.3136099952,-631807.9092273604,-631981.3587643337,-632125.8404404927,0.156,0.102,-0.972,192.0,0.0,0.0,0.0,0.0,0.0,0.0,0.0,0.0,0.0,1747532141.6823485,0.0, 2025-05-17 18:35:41.682
22.0,750000.0,-631340.3107333555,-707283.5811714628,-631788.6867271289,-706939.2748998732,-631746.4866335973,-631921.0090543043,-632064.8648816186,0.156,0.102,-0.972,192.0,0.0,0.0,0.0,0.0,0.0,0.0,0.0,0.0,0.0,1747532141.682492,0.0, 2025-05-17 18:35:41.682
23.0,750000.0,-631583.587120007,-707556.1830468397,-632032.4101486695,-707212.0555892057,-631989.9418342045,-632165.0006967784,-632308.3200822258,0.156,0.102,-0.972,192.0,0.0,0.0,0.0,0.0,0.0,0.0,0.0,0.0,0.0,1747532141.6825464,0.0, 2025-05-17 18:35:41.682
24.0,750000.0,-631701.9619586422,-707688.9524089042,-632150.3379524157,-707344.7355442925,-632109.210742618,-632283.4649423915,-632426.8737348168,0.156,0.102,-0.972,192.0,0.0,0.0,0.0,0.0,0.0,0.0,0.0,0.0,0.0,1747532141.6825988,0.0, 2025-05-17 18:35:41.682
25.0,750000.0,-631526.3666542014,-707491.8994297861,-631974.1167991301,-707148.2190070414,-631933.7942521328,-632107.5120100394,-632251.1890233981,0.156,0.102,-0.972,192.0,0.0,0.0,0.0,0.0,0.0,0.0,0.0,0.0,0.0,1747532141.6827295,0.0, 2025-05-17 18:35:41.682
26.0,750000.0,-631410.8528388564,-707362.1699049675,-631859.139425652,-707018.400075245,-631817.4757739874,-631991.7299737609,-632135.1387661861,0.156,0.102,-0.972,192.0,0.0,0.0,0.0,0.0,0.0,0.0,0.0,0.0,0.0,1747532142.1578643,0.0, 2025-05-17 18:35:42.157
27.0,750000.0,-631623.3732251375,-707600.3500938833,-632072.1068468222,-707256.3120432273,-632029.4597184014,-632204.4291739976,-632347.9273734007,0.156,0.102,-0.972,192.0,0.0,0.0,0.0,0.0,0.0,0.0,0.0,0.0,0.0,1747532142.1580567,0.0, 2025-05-17 18:35:42.158
28.0,750000.0,-631804.7799831367,-707803.0357126041,-632253.1559769101,-707459.2658828815,-632211.224104312,-632385.5677110634,-632529.5129453556,0.178,0.124,-0.962,192.0,5.0,144.0,3.0,224.0,225.0,240.0,0.0,0.0,0.0,1747532142.1581545,0.0, 2025-05-17 18:35:42.158
29.0,750000.0,-631680.5042839652,-707663.9184551142,-632128.8802777387,-707320.6850672585,-632088.0212888743,-632261.4708258476,-632405.3266531619,0.178,0.124,-0.962,192.0,0.0,0.0,0.0,0.0,0.0,0.0,0.0,0.0,0.0,1747532142.1582518,0.0, 2025-05-17 18:35:42.158
30.0,750000.0,-631516.3530726854,-707480.6341505807,-631964.8184734366,-707136.864320858,-631923.5124496833,-632097.677242479,-632241.5330697934,0.178,0.124,-0.962,192.0,0.0,0.0,0.0,0.0,0.0,0.0,0.0,0.0,0.0,1747532142.1583486,0.0, 2025-05-17 18:35:42.158
31.0,750000.0,-631678.090295564,-707662.04090858,-632127.0921381823,-707317.6452300126,-632084.5344167394,-632259.5932793133,-632403.0914787163,0.178,0.124,-0.962,192.0,0.0,0.0,0.0,0.0,0.0,0.0,0.0,0.0,0.0,1747532142.158426,0.0, 2025-05-17 18:35:42.158
32.0,750000.0,-631881.4911701073,-707889.9392950463,-632330.4036057477,-707545.0965815898,-632288.5611401274,-632462.8153399009,-632606.4029462818,0.178,0.124,-0.962,192.0,0.0,0.0,0.0,0.0,0.0,0.0,0.0,0.0,0.0,1747532142.1584764,0.0, 2025-05-17 18:35:42.158
33.0,750000.0,-631800.8460761126,-707799.8170614025,-632249.4008838417,-707454.7955339904,-632208.720708933,-632381.9914319506,-632525.8472592649,0.178,0.124,-0.962,192.0,0.0,0.0,0.0,0.0,0.0,0.0,0.0,0.0,0.0,1747532142.1585257,0.0, 2025-05-17 18:35:42.158
34.0,750000.0,-631602.2731783716,-707577.6407215168,-632051.0962070342,-707232.7980080603,-632009.7901832808,-632183.5079411875,-632327.4531754795,0.178,0.124,-0.962,192.0,0.0,0.0,0.0,0.0,0.0,0.0,0.0,0.0,0.0,1747532142.1585777,0.0, 2025-05-17 18:35:42.158
35.0,750000.0,-631706.7005284668,-707694.585048507,-632155.7917780628,-707349.474114117,-632113.5916845312,-632288.2035122161,-632431.9699325527,0.178,0.124,-0.962,192.0,0.0,0.0,0.0,0.0,0.0,0.0,0.0,0.0,0.0,1747532142.158673,0.0, 2025-05-17 18:35:42.158
36.0,750000.0,-631952.1226825861,-707969.064470418,-632400.9457112487,-707624.3111639394,-632358.8350246948,-632533.3574454018,-632677.0344587606,0.178,0.124,-0.962,192.0,0.0,0.0,0.0,0.0,0.0,0.0,0.0,0.0,0.0,1747532142.158744,0.0, 2025-05-17 18:35:42.158
37.0,750000.0,-631926.3734729736,-707939.2919468036,-632374.749466747,-707595.522117081,-632333.5328499714,-632507.340014856,-632650.838214259,0.178,0.124,-0.962,192.0,0.0,0.0,0.0,0.0,0.0,0.0,0.0,0.0,0.0,1747532142.1588285,0.0, 2025-05-17 18:35:42.158
38.0,750000.0,-631705.2700168217,-707691.9028391723,-632154.0036385064,-707348.3118234053,-632112.6082077752,-632286.4153726597,-632429.9135720627,0.184,0.136,-0.944,192.0,5.0,192.0,4.0,64.0,226.0,128.0,0.0,0.0,0.0,1747532142.1588783,0.0, 2025-05-17 18:35:42.158
39.0,750000.0,-631749.7946917766,-707742.4177816412,-632199.243569284,-707398.3797309852,-632156.6858478411,-632331.3870825038,-632474.6170609733,0.184,0.136,-0.944,192.0,0.0,0.0,0.0,0.0,0.0,0.0,0.0,0.0,0.0,1747532142.1589768,0.0, 2025-05-17 18:35:42.158
40.0,750000.0,-632003.7105087889,-708026.7319711128,-632452.9805723405,-707682.3362925454,-632410.6016648533,-632585.3028995161,-632728.2646570521,0.184,0.136,-0.944,192.0,0.0,0.0,0.0,0.0,0.0,0.0,0.0,0.0,0.0,1747532142.1590269,0.0, 2025-05-17 18:35:42.159
41.0,750000.0,-632025.4364043995,-708050.5142272132,-632473.4547702617,-707706.4761765571,-632432.5063744196,-632606.4923532597,-632749.9011456849,0.184,0.136,-0.944,192.0,0.0,0.0,0.0,0.0,0.0,0.0,0.0,0.0,0.0,1747532142.1590755,0.0, 2025-05-17 18:35:42.159
42.0,750000.0,-631806.657529671,-707806.1649568278,-632255.0335234444,-707462.1269061717,-632214.3533485357,-632387.802885509,-632531.5693058454,0.184,0.136,-0.944,192.0,0.0,0.0,0.0,0.0,0.0,0.0,0.0,0.0,0.0,1747532142.1591382,0.0, 2025-05-17 18:35:42.159
43.0,750000.0,-631798.1638667779,-707797.1348520679,-632246.8974884626,-707452.4709525671,-632205.3232437758,-632379.8456644828,-632523.3438638858,0.184,0.136,-0.944,192.0,0.0,0.0,0.0,0.0,0.0,0.0,0.0,0.0,0.0,1747532142.1591876,0.0, 2025-05-17 18:35:42.159
44.0,750000.0,-632060.8415676167,-708090.9261811884,-632509.6645962793,-707746.1728747097,-632467.6433167033,-632642.4339583438,-632785.842750769,0.184,0.136,-0.944,192.0,0.0,0.0,0.0,0.0,0.0,0.0,0.0,0.0,0.0,1747532142.159237,0.0, 2025-05-17 18:35:42.159
45.0,750000.0,-632142.201917434,-708181.7636706547,-632590.846132141,-707837.3679920874,-632549.6295153653,-632723.4366802499,-632867.2031005863,0.184,0.136,-0.944,192.0,0.0,0.0,0.0,0.0,0.0,0.0,0.0,0.0,0.0,1747532142.1592855,0.0, 2025-05-17 18:35:42.159
46.0,750000.0,-631941.662066181,-707957.08393539,-632390.0380599544,-707613.3141056674,-632348.9108501567,-632522.807422019,-632666.7526563111,0.184,0.136,-0.944,192.0,0.0,0.0,0.0,0.0,0.0,0.0,0.0,0.0,0.0,1747532142.1593344,0.0, 2025-05-17 18:35:42.159
47.0,750000.0,-631864.2356233879,-707870.2697599257,-632312.6116171613,-707526.1423022917,-632270.9479654966,-632445.7386071371,-632589.5944344514,0.184,0.136,-0.944,192.0,0.0,0.0,0.0,0.0,0.0,0.0,0.0,0.0,0.0,1747532142.159383,0.0, 2025-05-17 18:35:42.159
48.0,750000.0,-632100.5382657694,-708135.0932282321,-632549.1824804762,-707790.07170082,-632506.8929799668,-632681.6836216073,-632825.8076698551,0.19,0.148,-0.94,192.0,5.0,240.0,4.0,160.0,226.0,160.0,0.0,0.0,0.0,1747532142.159432,0.0, 2025-05-17 18:35:42.159
49.0,750000.0,-632238.225011614,-708289.3202649737,-632686.8692263209,-707944.6563654729,-632645.4737955898,-632819.5491814077,-632963.5838226776,0.19,0.148,-0.94,192.0,0.0,0.0,0.0,0.0,0.0,0.0,0.0,0.0,0.0,1747532142.159485,0.0, 2025-05-17 18:35:42.159
50.0,750000.0,-632073.8949863786,-708105.141890662,-632522.5392010856,-707761.1038400059,-632481.5013982656,-632655.1297491944,-632799.4326113978,0.19,0.148,-0.94,192.0,0.0,0.0,0.0,0.0,0.0,0.0,0.0,0.0,0.0,1747532142.1595347,0.0, 2025-05-17 18:35:42.159
51.0,750000.0,-631932.0955195541,-707946.3550980515,-632381.0973621723,-707602.2276404176,-632339.1654895742,-632513.4196893477,-632657.2755166622,0.19,0.148,-0.94,192.0,0.0,0.0,0.0,0.0,0.0,0.0,0.0,0.0,0.0,1747532142.1595955,0.0, 2025-05-17 18:35:42.159
52.0,750000.0,-632139.0726732103,-708178.2767985198,-632588.5215507175,-707834.2387478637,-632546.2320502081,-632720.9332848708,-632864.4314842739,0.19,0.148,-0.94,192.0,0.0,0.0,0.0,0.0,0.0,0.0,0.0,0.0,0.0,1747532142.1596444,0.0, 2025-05-17 18:35:42.159
53.0,750000.0,-632330.1353848142,-708392.1382894681,-632779.1372274325,-708048.1896457899,-632737.5629827456,-632911.6383685635,-633055.5836028557,0.19,0.148,-0.94,192.0,0.0,0.0,0.0,0.0,0.0,0.0,0.0,0.0,0.0,1747532142.1596937,0.0, 2025-05-17 18:35:42.159
54.0,750000.0,-632221.6847207171,-708270.5447996312,-632670.2395284462,-707926.596155953,-632629.291132604,-632803.0982974885,-632947.2223457363,0.19,0.148,-0.94,192.0,0.0,0.0,0.0,0.0,0.0,0.0,0.0,0.0,0.0,1747532142.1598873,0.0, 2025-05-17 18:35:42.159
55.0,750000.0,-632041.0826255182,-708068.4850297553,-632490.1738751142,-707724.4469790992,-632448.5102234496,-632622.9432371787,-632766.8884714709,0.19,0.148,-0.94,192.0,0.0,0.0,0.0,0.0,0.0,0.0,0.0,0.0,0.0,1747532142.1599393,0.0, 2025-05-17 18:35:42.159
56.0,750000.0,-632182.5244644313,-708227.5400432992,-632632.0627489166,-707882.9655507762,-632589.4156204958,-632764.6532970254,-632908.5091243398,0.19,0.148,-0.94,192.0,0.0,0.0,0.0,0.0,0.0,0.0,0.0,0.0,0.0,1747532142.1599889,0.0, 2025-05-17 18:35:42.159
57.0,750000.0,-632405.4160601397,-708476.8961044427,-632854.6861236914,-708132.5898328531,-632812.4860301598,-632987.6342997116,-633131.4007200481,0.19,0.148,-0.94,192.0,0.0,0.0,0.0,0.0,0.0,0.0,0.0,0.0,0.0,1747532142.1600516,0.0, 2025-05-17 18:35:42.160
58.0,750000.0,-632336.3044662839,-708398.5755918713,-632784.9486809908,-708054.9845761043,-632743.9108781709,-632918.0756709666,-633061.8420913032,0.198,0.14,-0.942,192.0,6.0,48.0,4.0,96.0,226.0,144.0,0.0,0.0,0.0,1747532142.1601012,0.0, 2025-05-17 18:35:42.160
59.0,750000.0,-632130.5790103172,-708168.620844915,-632579.6702599133,-707824.8510151925,-632538.1854222042,-632712.350215,-632856.2060423143,0.198,0.14,-0.942,192.0,0.0,0.0,0.0,0.0,0.0,0.0,0.0,0.0,0.0,1747532142.1601548,0.0, 2025-05-17 18:35:42.160
60.0,750000.0,-632223.9198951626,-708273.4952298994,-632673.4581796478,-707929.099551332,-632630.9898651827,-632805.7805068232,-632949.4575201819,0.198,0.14,-0.942,192.0,0.0,0.0,0.0,0.0,0.0,0.0,0.0,0.0,0.0,1747532142.160204,0.0, 2025-05-17 18:35:42.160
61.0,750000.0,-632466.4810259916,-708544.9348145647,-632915.6616825655,-708200.4497290194,-632873.6404029895,-633048.43104463,-633192.1974649666,0.198,0.14,-0.942,192.0,0.0,0.0,0.0,0.0,0.0,0.0,0.0,0.0,0.0,1747532142.1602523,0.0, 2025-05-17 18:35:42.160
62.0,750000.0,-632447.4373397157,-708523.208918954,-632895.9921474447,-708178.9920543423,-632854.6861236914,-633029.2979513762,-633173.1537786906,0.198,0.14,-0.942,192.0,0.0,0.0,0.0,0.0,0.0,0.0,0.0,0.0,0.0,1747532142.1603012,0.0, 2025-05-17 18:35:42.160
63.0,750000.0,-632223.8304881848,-708272.6011601212,-632672.295888936,-707928.8313303986,-632630.9004582048,-632805.2440649562,-632949.1892992484,0.198,0.14,-0.942,192.0,0.0,0.0,0.0,0.0,0.0,0.0,0.0,0.0,0.0,1747532142.1603546,0.0, 2025-05-17 18:35:42.160
64.0,750000.0,-632255.1229304222,-708308.2745442719,-632704.2141800183,-707963.8788657044,-632661.835272531,-632836.5365071937,-632980.5711484636,0.198,0.14,-0.942,192.0,0.0,0.0,0.0,0.0,0.0,0.0,0.0,0.0,0.0,1747532142.1604035,0.0, 2025-05-17 18:35:42.160
65.0,750000.0,-632519.8569917509,-708604.5692687713,-632968.8588343691,-708259.8159622927,-632926.4799268818,-633101.449382478,-633245.3946167701,0.198,0.14,-0.942,192.0,0.0,0.0,0.0,0.0,0.0,0.0,0.0,0.0,0.0,1747532142.160452,0.0, 2025-05-17 18:35:42.160
66.0,750000.0,-632563.8452248389,-708653.6536995952,-633012.6682535015,-708309.3474280057,-632971.2728227703,-633145.5270225438,-633289.6510707916,0.198,0.14,-0.942,192.0,0.0,0.0,0.0,0.0,0.0,0.0,0.0,0.0,0.0,1747532142.160514,0.0, 2025-05-17 18:35:42.160
67.0,750000.0,-632359.9973154066,-708424.7718363729,-632808.37330918,-708080.8231926946,-632767.33550636,-632941.1426712445,-633085.0879055366,0.198,0.14,-0.942,192.0,0.0,0.0,0.0,0.0,0.0,0.0,0.0,0.0,0.0,1747532142.1605632,0.0, 2025-05-17 18:35:42.160
68.0,750000.0,-632310.9128845826,-708370.233579902,-632759.9147272009,-708026.2849362236,-632717.9828546027,-632892.1476473985,-633036.450509602,0.196,0.122,-0.942,192.0,6.0,32.0,3.0,208.0,226.0,144.0,0.0,0.0,0.0,1747532142.1606116,0.0, 2025-05-17 18:35:42.160
69.0,750000.0,-632559.4642829257,-708648.736315815,-633008.4661255439,-708304.4300442255,-632966.4448459679,-633140.7884527193,-633285.1807219005,0.196,0.122,-0.942,192.0,0.0,0.0,0.0,0.0,0.0,0.0,0.0,0.0,0.0,1747532142.1607327,0.0, 2025-05-17 18:35:42.160
70.0,750000.0,-632656.9178887508,-708757.6340148014,-633105.4726964799,-708413.3277432118,-633064.3454866821,-633238.3314655223,-633382.6343277257,0.196,0.122,-0.942,192.0,0.0,0.0,0.0,0.0,0.0,0.0,0.0,0.0,0.0,1747532142.1608093,0.0, 2025-05-17 18:35:42.160
71.0,750000.0,-632474.259433062,-708552.7132216351,-632922.1883919464,-708208.8539849346,-632881.7764379712,-633055.6730098336,-633199.5288371479,0.196,0.122,-0.942,192.0,0.0,0.0,0.0,0.0,0.0,0.0,0.0,0.0,0.0,1747532142.160895,0.0, 2025-05-17 18:35:42.160
72.0,750000.0,-632390.9321297327,-708460.1769995901,-632839.7551583953,-708115.602507067,-632798.0915067305,-632972.6139274376,-633116.5591617298,0.196,0.122,-0.942,192.0,0.0,0.0,0.0,0.0,0.0,0.0,0.0,0.0,0.0,1747532142.1610026,0.0, 2025-05-17 18:35:42.161
74.0,750000.0,-632766.6202505375,-708881.1050511724,-633215.7115001335,-708536.0835237603,-633174.4948833579,-633348.480862198,-633492.0684685789,0.196,0.122,-0.942,192.0,0.0,0.0,0.0,0.0,0.0,0.0,0.0,0.0,0.0,1747532142.1610868,0.0, 2025-05-17 18:35:42.161
76.0,750000.0,-632457.5403282095,-708534.5636051374,-632906.2739498942,-708190.0785195922,-632864.9679261409,-633039.1327189365,-633182.6309183396,0.196,0.122,-0.942,192.0,0.0,0.0,0.0,0.0,0.0,0.0,0.0,0.0,0.0,1747532142.1611848,0.0, 2025-05-17 18:35:42.161
77.0,750000.0,-632645.9208304788,-708745.5640727954,-633094.4756382079,-708400.4531384055,-633052.5437656097,-633227.3344072503,-633370.8326066533,0.196,0.122,-0.942,192.0,0.0,0.0,0.0,0.0,0.0,0.0,0.0,0.0,0.0,1747532142.16125,0.0, 2025-05-17 18:35:42.161
78.0,750000.0,-632839.7551583953,-708962.823028901,-633288.3099661244,-708617.5332805555,-633247.1827563266,-633421.1687351667,-633565.2033764367,0.188,0.112,-0.962,192.0,5.0,224.0,3.0,128.0,225.0,240.0,0.0,0.0,0.0,1747532142.1613002,0.0, 2025-05-17 18:35:42.161
79.0,750000.0,-632728.8905058969,-708838.815550663,-633177.6241275816,-708493.9728372066,-633137.0333596509,-633310.6617105796,-633454.3387239383,0.188,0.112,-0.962,192.0,0.0,0.0,0.0,0.0,0.0,0.0,0.0,0.0,0.0,1747532142.161353,0.0, 2025-05-17 18:35:42.161
80.0,750000.0,-632540.8676315389,-708628.4409318496,-632989.6906602015,-708283.2405904819,-632948.384636448,-633122.3706152881,-633266.2264426025,0.188,0.112,-0.962,192.0,0.0,0.0,0.0,0.0,0.0,0.0,0.0,0.0,0.0,1747532142.161402,0.0, 2025-05-17 18:35:42.161
81.0,750000.0,-632677.302679694,-708781.0586429904,-633126.4833362679,-708436.215929534,-633084.6408706476,-633259.0738843768,-633403.1085256469,0.188,0.112,-0.962,192.0,0.0,0.0,0.0,0.0,0.0,0.0,0.0,0.0,0.0,1747532142.161451,0.0, 2025-05-17 18:35:42.161
82.0,750000.0,-632904.8434382491,-709035.0638669806,-633353.2194320225,-708690.4893744576,-633312.0922222248,-633486.1676080427,-633630.023435357,0.188,0.112,-0.962,192.0,0.0,0.0,0.0,0.0,0.0,0.0,0.0,0.0,0.0,1747532142.1615,0.0, 2025-05-17 18:35:42.161
83.0,750000.0,-632849.0534840886,-708972.6577964614,-633297.51888484,-708628.262117894,-633257.0175238869,-633430.6458748158,-633574.591109108,0.188,0.112,-0.962,192.0,0.0,0.0,0.0,0.0,0.0,0.0,0.0,0.0,0.0,1747532142.1615665,0.0, 2025-05-17 18:35:42.161
84.0,750000.0,-632635.817841985,-708733.9411656787,-633084.3726497141,-708389.6348940892,-633043.6030678276,-633217.3208257343,-633361.1766530486,0.188,0.112,-0.962,192.0,0.0,0.0,0.0,0.0,0.0,0.0,0.0,0.0,0.0,1747532142.1616163,0.0, 2025-05-17 18:35:42.161
85.0,750000.0,-632714.5853894455,-708823.0799225664,-633163.7660460194,-708477.9689881766,-633122.3706152881,-633296.5354080839,-633440.2124214426,0.188,0.112,-0.962,192.0,0.0,0.0,0.0,0.0,0.0,0.0,0.0,0.0,0.0,1747532142.1616652,0.0, 2025-05-17 18:35:42.161
86.0,750000.0,-632968.0541715687,-709107.394112038,-633417.5924560538,-708762.1937706702,-633375.8393974113,-633550.540632074,-633694.4858663662,0.188,0.112,-0.962,192.0,0.0,0.0,0.0,0.0,0.0,0.0,0.0,0.0,0.0,1747532142.1617868,0.0, 2025-05-17 18:35:42.161
87.0,750000.0,-632969.7529041473,-709108.5564027496,-633418.6653397877,-708763.7136892931,-633377.4487230121,-633551.7029227857,-633695.7375640557,0.188,0.112,-0.962,192.0,0.0,0.0,0.0,0.0,0.0,0.0,0.0,0.0,0.0,1747532142.1618364,0.0, 2025-05-17 18:35:42.161
88.0,750000.0,-632753.2092038643,-708866.0846788984,-633202.0322325268,-708521.3313724198,-633160.9050227291,-633334.8910015692,-633478.9256428392,0.178,0.108,-0.984,192.0,5.0,144.0,3.0,96.0,225.0,64.0,0.0,0.0,0.0,1747532142.1618853,0.0, 2025-05-17 18:35:42.161
89.0,750000.0,-632757.5007387997,-708870.9126557008,-633206.7708023514,-708526.2487562,-633164.7495227754,-633339.2719434825,-633483.2171777746,0.178,0.108,-0.984,192.0,0.0,0.0,0.0,0.0,0.0,0.0,0.0,0.0,0.0,1747532142.1619503,0.0, 2025-05-17 18:35:42.161
90.0,750000.0,-633016.3339395921,-709160.9488917529,-633465.7828170995,-708816.0167713186,-633424.2085724126,-633598.3733652084,-633742.0503785671,0.178,0.108,-0.984,192.0,0.0,0.0,0.0,0.0,0.0,0.0,0.0,0.0,0.0,1747532142.1619992,0.0, 2025-05-17 18:35:42.161
91.0,750000.0,-633066.7594750833,-709216.4706249798,-633515.493096768,-708872.0749464125,-633474.5447009259,-633648.3518658105,-633792.2076931248,0.178,0.108,-0.984,192.0,0.0,0.0,0.0,0.0,0.0,0.0,0.0,0.0,0.0,1747532142.1620476,0.0, 2025-05-17 18:35:42.162
92.0,750000.0,-632872.2992983222,-708998.6752270074,-633321.0329200069,-708654.6371763513,-633280.2633381204,-633453.7128750936,-633597.8369233414,0.178,0.108,-0.984,192.0,0.0,0.0,0.0,0.0,0.0,0.0,0.0,0.0,0.0,1747532142.1620977,0.0, 2025-05-17 18:35:42.162
93.0,750000.0,-632816.0623092726,-708935.5539006656,-633264.7065239795,-708591.5158500095,-633223.3110932483,-633397.5652930218,-633541.4211203363,0.178,0.108,-0.984,192.0,0.0,0.0,0.0,0.0,0.0,0.0,0.0,0.0,0.0,1747532142.1621466,0.0, 2025-05-17 18:35:42.162
94.0,750000.0,-633057.7293703234,-709206.6358574196,-633506.6418059638,-708861.7931439631,-633464.7099333656,-633639.5005750061,-633783.3564023204,0.178,0.108,-0.984,192.0,0.0,0.0,0.0,0.0,0.0,0.0,0.0,0.0,0.0,1747532142.1621952,0.0, 2025-05-17 18:35:42.162
95.0,750000.0,-633173.4219996241,-709336.2759752603,-633621.7979933976,-708991.1650408703,-633581.1178184889,-633755.0143903511,-633898.9596246433,0.178,0.108,-0.984,192.0,0.0,0.0,0.0,0.0,0.0,0.0,0.0,0.0,0.0,1747532142.162263,0.0, 2025-05-17 18:35:42.162
96.0,750000.0,-632994.3398230481,-709135.5573100516,-633442.6264098438,-708790.8934105508,-633402.5720837798,-633575.7533998196,-633719.5198201562,0.178,0.108,-0.984,192.0,0.0,0.0,0.0,0.0,0.0,0.0,0.0,0.0,0.0,1747532142.1623132,0.0, 2025-05-17 18:35:42.162
97.0,750000.0,-632875.7861704571,-709002.6091340315,-633324.4303851641,-708658.1240484862,-633283.2137683885,-633457.1997472286,-633600.9661675652,0.178,0.108,-0.984,192.0,0.0,0.0,0.0,0.0,0.0,0.0,0.0,0.0,0.0,1747532142.162366,0.0, 2025-05-17 18:35:42.162
98.0,750000.0,-633092.7769056293,-709245.3490788161,-633541.5999342919,-708901.0428072265,-633500.025689605,-633674.1904824007,-633818.4039376264,0.178,0.102,-0.98,192.0,5.0,144.0,3.0,48.0,225.0,96.0,0.0,0.0,0.0,1747532142.1624317,0.0, 2025-05-17 18:35:42.162
99.0,750000.0,-633264.8853379352,-709438.3787439321,-633713.5295526421,-709093.7148444313,-633672.9387847113,-633846.2095077288,-633990.9594048214,0.178,0.102,-0.98,192.0,0.0,0.0,0.0,0.0,0.0,0.0,0.0,0.0,0.0,1747532142.162485,0.0, 2025-05-17 18:35:42.162
100.0,750000.0,-633118.1684873305,-709274.2275326523,-633566.1868531927,-708929.4742261737,-633526.2219341067,-633699.3138431686,-633843.9743332833,0.178,0.102,-0.98,192.0,0.0,0.0,0.0,0.0,0.0,0.0,0.0,0.0,0.0,1747532142.162533,0.0, 2025-05-17 18:35:42.162
101.0,750000.0,-632945.7024271134,-709081.4660884698,-633394.2572348425,-708736.802188969,-633353.6664669117,-633527.2054108627,-633671.5976800439,0.178,0.102,-0.98,192.0,0.0,0.0,0.0,0.0,0.0,0.0,0.0,0.0,0.0,1747532142.1626637,0.0, 2025-05-17 18:35:42.162
102.0,750000.0,-633114.6816151955,-709270.5618465617,-633563.8622717693,-708925.8979470609,-633522.2880270825,-633696.6316338339,-633840.4874611483,0.178,0.102,-0.98,192.0,0.0,0.0,0.0,0.0,0.0,0.0,0.0,0.0,0.0,1747532142.1627135,0.0, 2025-05-17 18:35:42.162
103.0,750000.0,-633328.3642921882,-709509.6361052557,-633777.2767278287,-709164.7933917992,-633736.060111053,-633909.8672759375,-634054.3489520967,0.178,0.102,-0.98,192.0,0.0,0.0,0.0,0.0,0.0,0.0,0.0,0.0,0.0,1747532142.162774,0.0, 2025-05-17 18:35:42.162
104.0,750000.0,-633239.2255353004,-709409.6791040516,-633687.4227151183,-709064.9257975728,-633647.1895750988,-633820.1026702051,-633965.120788231,0.178,0.102,-0.98,192.0,0.0,0.0,0.0,0.0,0.0,0.0,0.0,0.0,0.0,1747532142.1628237,0.0, 2025-05-17 18:35:42.162
105.0,750000.0,-633032.1589746665,-709178.2044384724,-633480.8031893735,-708833.4511319937,-633439.9442005091,-633613.572551438,-633758.0542275971,0.178,0.102,-0.98,192.0,0.0,0.0,0.0,0.0,0.0,0.0,0.0,0.0,0.0,1747532142.1628723,0.0, 2025-05-17 18:35:42.162
106.0,750000.0,-633156.1664529046,-709317.3216959622,-633605.2577025006,-708972.2107615722,-633563.7728647916,-633737.8482506095,-633882.3299267686,0.178,0.102,-0.98,192.0,0.0,0.0,0.0,0.0,0.0,0.0,0.0,0.0,0.0,1747532142.1629214,0.0, 2025-05-17 18:35:42.162
107.0,750000.0,-633405.6119210258,-709596.8079086314,-633854.5243566661,-709251.4287533079,-633813.8441817575,-633987.4725326863,-634131.685987912,0.178,0.102,-0.98,192.0,0.0,0.0,0.0,0.0,0.0,0.0,0.0,0.0,0.0,1747532142.16297,0.0, 2025-05-17 18:35:42.162
108.0,750000.0,-633368.5974322078,-709554.965443011,-633817.0628329591,-709209.9439155989,-633776.6508789839,-633950.100415957,-634094.5820921161,0.19,0.114,-0.974,192.0,5.0,240.0,3.0,144.0,225.0,144.0,0.0,0.0,0.0,1747532142.1630187,0.0, 2025-05-17 18:35:42.163
109.0,750000.0,-633144.8117667213,-709304.1788702225,-633593.7242023617,-708959.4255637438,-633552.6863995417,-633726.4935644262,-633870.7070196518,0.19,0.114,-0.974,192.0,0.0,0.0,0.0,0.0,0.0,0.0,0.0,0.0,0.0,1747532142.1630723,0.0, 2025-05-17 18:35:42.163
110.0,750000.0,-633194.6114533677,-709359.8794174051,-633643.5238890081,-709014.9472969708,-633601.6814233877,-633776.114437117,-633919.9702644313,0.19,0.114,-0.974,192.0,0.0,0.0,0.0,0.0,0.0,0.0,0.0,0.0,0.0,1747532142.1631212,0.0, 2025-05-17 18:35:42.163
111.0,750000.0,-633469.537910168,-709668.1546769327,-633918.8079737197,-709322.954335565,-633877.1443220549,-634051.1303008951,-634195.3437561207,0.19,0.114,-0.974,192.0,0.0,0.0,0.0,0.0,0.0,0.0,0.0,0.0,0.0,1747532142.1631708,0.0, 2025-05-17 18:35:42.163
112.0,750000.0,-633491.7108406676,-709692.9204097892,-633940.3550553746,-709348.0776963327,-633899.5854734881,-634073.3032313947,-634217.4272796426,0.19,0.114,-0.974,192.0,0.0,0.0,0.0,0.0,0.0,0.0,0.0,0.0,0.0,1747532142.16324,0.0, 2025-05-17 18:35:42.163
113.0,750000.0,-633265.7794077133,-709439.8986625551,-633714.3342154425,-709095.1453560764,-633673.4752265782,-633847.2823914627,-633991.3170327327,0.19,0.114,-0.974,192.0,0.0,0.0,0.0,0.0,0.0,0.0,0.0,0.0,0.0,1747532142.1633515,0.0, 2025-05-17 18:35:42.163
114.0,750000.0,-633256.2128610865,-709429.0804182388,-633705.2147037047,-709084.2377047823,-633663.1934241287,-633838.0734727471,-633981.9293000614,0.19,0.114,-0.974,192.0,0.0,0.0,0.0,0.0,0.0,0.0,0.0,0.0,0.0,1747532142.1634295,0.0, 2025-05-17 18:35:42.163
115.0,750000.0,-633521.3045503264,-709725.8221776274,-633970.3063929447,-709380.7112432375,-633928.1957063909,-634102.8075340757,-634247.1103962791,0.19,0.114,-0.974,192.0,0.0,0.0,0.0,0.0,0.0,0.0,0.0,0.0,0.0,1747532142.1635146,0.0, 2025-05-17 18:35:42.163
116.0,750000.0,-633588.9856325372,-709801.549887842,-634037.5404402663,-709456.6177674077,-633996.6814514019,-634170.0415813973,-634314.7914784899,0.19,0.114,-0.974,192.0,0.0,0.0,0.0,0.0,0.0,0.0,0.0,0.0,0.0,1747532142.1635647,0.0, 2025-05-17 18:35:42.163
117.0,750000.0,-633386.7470487055,-709575.2608269765,-633835.1230424789,-709230.5969274756,-633794.8899024595,-633968.0712184991,-634112.5528946583,0.19,0.114,-0.974,192.0,0.0,0.0,0.0,0.0,0.0,0.0,0.0,0.0,0.0,1747532142.1636138,0.0, 2025-05-17 18:35:42.163
118.0,750000.0,-633328.2748852104,-709509.9043261891,-633776.9190999174,-709164.882798777,-633735.7918901196,-633909.6884619818,-634054.0807311632,0.204,0.13,-0.968,192.0,6.0,96.0,4.0,16.0,225.0,192.0,0.0,0.0,0.0,1747532142.1636758,0.0, 2025-05-17 18:35:42.163
119.0,750000.0,-633574.0546672409,-709785.7248527677,-634023.6823587039,-709440.2562904664,-633982.0187070393,-634156.183499835,-634300.1287341272,0.204,0.13,-0.968,192.0,0.0,0.0,0.0,0.0,0.0,0.0,0.0,0.0,0.0,1747532142.163765,0.0, 2025-05-17 18:35:42.163
120.0,750000.0,-633701.101982725,-709927.524319592,-634150.193232321,-709582.1451642687,-634109.2448364788,-634282.7837804299,-634427.1760496112,0.204,0.13,-0.968,192.0,0.0,0.0,0.0,0.0,0.0,0.0,0.0,0.0,0.0,1747532142.1638525,0.0, 2025-05-17 18:35:42.163
121.0,750000.0,-633533.553306288,-709739.3226312784,-633981.8398930836,-709394.3905108441,-633941.6067530641,-634115.1456970151,-634259.2697452629,0.204,0.13,-0.968,192.0,0.0,0.0,0.0,0.0,0.0,0.0,0.0,0.0,0.0,1747532142.163915,0.0, 2025-05-17 18:35:42.163
122.0,750000.0,-633402.1250488907,-709592.6057806738,-633850.8586705755,-709247.405439306,-633810.0890886891,-633983.9856605513,-634127.9308948435,0.204,0.13,-0.968,192.0,0.0,0.0,0.0,0.0,0.0,0.0,0.0,0.0,0.0,1747532142.1639967,0.0, 2025-05-17 18:35:42.163
123.0,750000.0,-633606.3305862345,-709821.2194229626,-634055.0642079192,-709475.7508606614,-634013.9369981214,-634188.0123839393,-634332.225839165,0.204,0.13,-0.968,192.0,0.0,0.0,0.0,0.0,0.0,0.0,0.0,0.0,0.0,1747532142.164052,0.0, 2025-05-17 18:35:42.164
124.0,750000.0,-633781.6576697419,-710017.6465532358,-634230.6595123601,-709671.9991769791,-634189.8899304736,-634363.6076883803,-634507.6423296502,0.204,0.13,-0.968,192.0,0.0,0.0,0.0,0.0,0.0,0.0,0.0,0.0,0.0,1747532142.1641016,0.0, 2025-05-17 18:35:42.164
125.0,750000.0,-633648.7989006995,-709868.3369002744,-634097.2643014508,-709523.4047798401,-634057.0311614312,-634230.212477471,-634374.6941536301,0.204,0.13,-0.968,192.0,0.0,0.0,0.0,0.0,0.0,0.0,0.0,0.0,0.0,1747532142.164161,0.0, 2025-05-17 18:35:42.164
126.0,750000.0,-633477.8527591054,-709677.1847816927,-633926.5863807901,-709332.2526612583,-633885.7273919258,-634059.5345568103,-634203.5691980802,0.204,0.13,-0.968,192.0,0.0,0.0,0.0,0.0,0.0,0.0,0.0,0.0,0.0,1747532142.1642106,0.0, 2025-05-17 18:35:42.164
127.0,750000.0,-633641.8251564294,-709860.9161211153,-634090.9164060255,-709515.6263727697,-634049.4315683164,-634223.6857680901,-634367.6310023823,0.204,0.13,-0.968,192.0,0.0,0.0,0.0,0.0,0.0,0.0,0.0,0.0,0.0,1747532142.164291,0.0, 2025-05-17 18:35:42.164
128.0,750000.0,-633858.9052985794,-710103.9242868334,-634307.9965481755,-709758.54513151,-634266.8693383777,-634440.3188753509,-634584.80055151,0.202,0.138,-0.958,192.0,6.0,80.0,4.0,80.0,226.0,16.0,0.0,0.0,0.0,1747532142.1643507,0.0, 2025-05-17 18:35:42.164
129.0,750000.0,-633780.584786008,-710016.0372276352,-634229.1395937371,-709670.8368862673,-634189.0852676732,-634361.9089558016,-634506.6588528942,0.202,0.138,-0.958,192.0,0.0,0.0,0.0,0.0,0.0,0.0,0.0,0.0,0.0,1747532142.1644475,0.0, 2025-05-17 18:35:42.164
130.0,750000.0,-633569.047876483,-709778.8405154754,-634017.8709051455,-709434.1766159745,-633976.7436953478,-634150.3720462766,-634294.7643154579,0.202,0.138,-0.958,192.0,0.0,0.0,0.0,0.0,0.0,0.0,0.0,0.0,0.0,1747532142.1646123,0.0, 2025-05-17 18:35:42.164
131.0,750000.0,-633669.9883544431,-709892.4767842862,-634119.2584179948,-709547.0976289627,-634077.4159523745,-634251.5807451702,-634395.8836073737,0.202,0.138,-0.958,192.0,0.0,0.0,0.0,0.0,0.0,0.0,0.0,0.0,0.0,1747532142.1648064,0.0, 2025-05-17 18:35:42.164
132.0,750000.0,-633917.5562760301,-710169.1913806428,-634366.3793046927,-709823.8122253194,-634324.8050600059,-634498.9698528016,-634643.1833080272,0.202,0.138,-0.958,192.0,0.0,0.0,0.0,0.0,0.0,0.0,0.0,0.0,0.0,1747532142.1648912,0.0, 2025-05-17 18:35:42.164
133.0,750000.0,-633893.5057989962,-710141.8328454295,-634341.5241648584,-709797.2583529066,-634301.4698387944,-634474.9193757677,-634618.9540170376,0.202,0.138,-0.958,192.0,0.0,0.0,0.0,0.0,0.0,0.0,0.0,0.0,0.0,1747532142.1650288,0.0, 2025-05-17 18:35:42.165
134.0,750000.0,-633675.9786219571,-709898.556458778,-634124.0863947972,-709553.8925592771,-634083.8532547776,-634257.4816057065,-634401.6056539543,0.202,0.138,-0.958,192.0,0.0,0.0,0.0,0.0,0.0,0.0,0.0,0.0,0.0,1747532142.1651168,0.0, 2025-05-17 18:35:42.165
135.0,750000.0,-633712.3672619304,-709939.594261598,-634160.9220696596,-709594.483327208,-634119.7948598617,-634294.3172805688,-634438.3519218388,0.202,0.138,-0.958,192.0,0.0,0.0,0.0,0.0,0.0,0.0,0.0,0.0,0.0,1747532142.165167,0.0, 2025-05-17 18:35:42.165
136.0,750000.0,-633988.9924513093,-710249.1212188151,-634437.5472590384,-709904.0102844251,-634396.241235285,-634571.0318769255,-634715.0665181954,0.202,0.138,-0.958,192.0,0.0,0.0,0.0,0.0,0.0,0.0,0.0,0.0,0.0,1747532142.1652164,0.0, 2025-05-17 18:35:42.165
137.0,750000.0,-634021.178963325,-710285.152230877,-634469.6443640762,-709940.6671453319,-634429.232410101,-634603.0395749855,-634747.5212511446,0.202,0.138,-0.958,192.0,0.0,0.0,0.0,0.0,0.0,0.0,0.0,0.0,0.0,1747532142.1652656,0.0, 2025-05-17 18:35:42.165
138.0,750000.0,-633799.5390653061,-710037.1372744009,-634248.0938730353,-709692.4733749001,-634207.7713260378,-634381.3102699888,-634525.7025391702,0.204,0.136,-0.944,192.0,6.0,96.0,4.0,64.0,226.0,128.0,0.0,0.0,0.0,1747532142.1653142,0.0, 2025-05-17 18:35:42.165
139.0,750000.0,-633766.8161114235,-710000.6592274498,-634215.7285470639,-709655.7271070156,-634174.3331163327,-634348.8555370397,-634492.5325503985,0.204,0.136,-0.944,192.0,0.0,0.0,0.0,0.0,0.0,0.0,0.0,0.0,0.0,1747532142.165368,0.0, 2025-05-17 18:35:42.165
140.0,750000.0,-634020.2848935467,-710284.7946029657,-634469.4655501206,-709939.4154476423,-634428.1595263672,-634602.5925400964,-634746.2695534551,0.204,0.136,-0.944,192.0,0.0,0.0,0.0,0.0,0.0,0.0,0.0,0.0,0.0,1747532142.1654162,0.0, 2025-05-17 18:35:42.165
141.0,750000.0,-634105.3109294547,-710379.7448134118,-634554.0445511395,-710034.4550650662,-634513.4537832086,-634687.0821341374,-634831.6532172743,0.204,0.136,-0.944,192.0,0.0,0.0,0.0,0.0,0.0,0.0,0.0,0.0,0.0,1747532142.1654649,0.0, 2025-05-17 18:35:42.165
142.0,750000.0,-633908.8837991814,-710159.3566130826,-634357.2597929549,-709814.6033066039,-634317.205466891,-634490.2973759529,-634635.0472730455,0.204,0.136,-0.944,192.0,0.0,0.0,0.0,0.0,0.0,0.0,0.0,0.0,0.0,1747532142.1655333,0.0, 2025-05-17 18:35:42.165
143.0,750000.0,-633821.5331818501,-710061.9030072574,-634270.2668035349,-709716.7920728675,-634229.5866286262,-634403.3043865329,-634547.8754696698,0.204,0.136,-0.944,192.0,0.0,0.0,0.0,0.0,0.0,0.0,0.0,0.0,0.0,1747532142.1655824,0.0, 2025-05-17 18:35:42.165
144.0,750000.0,-634059.0875219211,-710327.9781732534,-634507.8211436059,-709982.7778318856,-634466.6939338081,-634640.9481335817,-634785.340402763,0.204,0.136,-0.944,192.0,0.0,0.0,0.0,0.0,0.0,0.0,0.0,0.0,0.0,1747532142.1656313,0.0, 2025-05-17 18:35:42.165
145.0,750000.0,-634203.211570169,-710489.6259891541,-634651.766377898,-710144.5150547642,-634611.2650169451,-634785.340402763,-634929.5538579887,0.204,0.136,-0.944,192.0,0.0,0.0,0.0,0.0,0.0,0.0,0.0,0.0,0.0,1747532142.1657095,0.0, 2025-05-17 18:35:42.165
146.0,750000.0,-634050.4150450724,-710318.143405693,-634498.7910388459,-709973.3900992144,-634458.7367127821,-634632.5438776665,-634776.7573328922,0.204,0.136,-0.944,192.0,0.0,0.0,0.0,0.0,0.0,0.0,0.0,0.0,0.0,1747532142.1657584,0.0, 2025-05-17 18:35:42.165
147.0,750000.0,-633905.3075200686,-710155.7803339696,-634353.9517347756,-709810.6693995798,-634313.0927459112,-634487.4363526626,-634631.6498078883,0.204,0.136,-0.944,192.0,0.0,0.0,0.0,0.0,0.0,0.0,0.0,0.0,0.0,1747532142.165807,0.0, 2025-05-17 18:35:42.165
148.0,750000.0,-634107.5461039003,-710382.4270227465,-634556.3691325628,-710036.8690534674,-634514.9737018315,-634689.85375045,-634833.8883917199,0.202,0.128,-0.95,192.0,6.0,80.0,4.0,0.0,226.0,80.0,0.0,0.0,0.0,1747532142.2539024,0.0, 2025-05-17 18:35:42.253
149.0,750000.0,-634294.9431294135,-710592.4440136486,-634743.8555650539,-710246.8860443695,-634702.9071692118,-634876.8931480519,-635021.1066032776,0.202,0.128,-0.95,192.0,0.0,0.0,0.0,0.0,0.0,0.0,0.0,0.0,0.0,1747532142.2540224,0.0, 2025-05-17 18:35:42.254
150.0,750000.0,-634179.6081280241,-710462.8038958078,-634628.3417497089,-710117.6929614178,-634588.1086096894,-634761.289925729,-634905.861008866,0.202,0.128,-0.95,192.0,0.0,0.0,0.0,0.0,0.0,0.0,0.0,0.0,0.0,1747532142.2541034,0.0, 2025-05-17 18:35:42.254
151.0,750000.0,-633990.3335559766,-710251.0881723271,-634439.245991617,-709905.4407960703,-634398.4764097305,-634572.1941676371,-634716.5864368185,0.202,0.128,-0.95,192.0,0.0,0.0,0.0,0.0,0.0,0.0,0.0,0.0,0.0,1747532142.2541811,0.0, 2025-05-17 18:35:42.254
152.0,750000.0,-634143.2194880509,-710422.660162766,-634592.757772536,-710077.102193487,-634551.0941208714,-634725.2589136672,-634869.9194037819,0.202,0.128,-0.95,192.0,0.0,0.0,0.0,0.0,0.0,0.0,0.0,0.0,0.0,1747532142.2542644,0.0, 2025-05-17 18:35:42.254
153.0,750000.0,-634365.3958279367,-710671.1221541313,-634814.308263577,-710325.5641848522,-634773.1810537793,-634947.0776256416,-635091.5593018007,0.202,0.128,-0.95,192.0,0.0,0.0,0.0,0.0,0.0,0.0,0.0,0.0,0.0,1747532142.254341,0.0, 2025-05-17 18:35:42.254
154.0,750000.0,-634295.211350347,-710591.9969787594,-634743.4085301649,-710246.4390094804,-634703.3542041009,-634876.356706185,-635020.9277893219,0.202,0.128,-0.95,192.0,0.0,0.0,0.0,0.0,0.0,0.0,0.0,0.0,0.0,1747532142.2545073,0.0, 2025-05-17 18:35:42.254
155.0,750000.0,-634091.4528478924,-710364.187999271,-634540.0076556215,-710018.8982509254,-634499.5062946685,-634672.9558316417,-634817.2586938451,0.202,0.128,-0.95,192.0,0.0,0.0,0.0,0.0,0.0,0.0,0.0,0.0,0.0,1747532142.2546003,0.0, 2025-05-17 18:35:42.254
156.0,750000.0,-634180.3233838468,-710464.2344074529,-634629.5934473984,-710118.5870311961,-634587.9297957337,-634762.0051815517,-634906.5762646885,0.202,0.128,-0.95,192.0,0.0,0.0,0.0,0.0,0.0,0.0,0.0,0.0,0.0,1747532142.254683,0.0, 2025-05-17 18:35:42.254
157.0,750000.0,-634425.1196891213,-710738.8926433197,-634874.4791596507,-710392.9770461294,-634833.1731358974,-635007.337928693,-635152.0878257856,0.202,0.128,-0.95,192.0,0.0,0.0,0.0,0.0,0.0,0.0,0.0,0.0,0.0,1747532142.2548733,0.0, 2025-05-17 18:35:42.254
158.0,750000.0,-634414.6590727161,-710726.5544803804,-634863.5715083566,-710380.7282901679,-634822.8019264701,-634996.7879053102,-635141.0907675136,0.2,0.126,-0.962,192.0,6.0,64.0,3.0,240.0,225.0,240.0,0.0,0.0,0.0,1747532142.2549653,0.0, 2025-05-17 18:35:42.254
159.0,750000.0,-634200.5293608343,-710487.0331867973,-634649.7100174081,-710141.117589607,-634609.0298424995,-634782.9264143618,-634927.0504626096,0.2,0.126,-0.962,192.0,0.0,0.0,0.0,0.0,0.0,0.0,0.0,0.0,0.0,1747532142.25519,0.0, 2025-05-17 18:35:42.255
160.0,750000.0,-634216.7120238199,-710504.6463614281,-634665.7138664381,-710158.6413572599,-634624.2290287291,-634799.0196703697,-634943.0543116396,0.2,0.126,-0.962,192.0,0.0,0.0,0.0,0.0,0.0,0.0,0.0,0.0,0.0,1747532142.2553582,0.0, 2025-05-17 18:35:42.255
161.0,750000.0,-634483.0554107494,-710802.818632462,-634931.878439412,-710457.2606631828,-634890.4830086807,-635065.2736503213,-635209.3976985691,0.2,0.126,-0.962,192.0,0.0,0.0,0.0,0.0,0.0,0.0,0.0,0.0,0.0,1747532142.2554488,0.0, 2025-05-17 18:35:42.255
162.0,750000.0,-634531.5139927285,-710857.267481955,-634980.6052423245,-710511.9777336095,-634939.6568464824,-635113.3746043891,-635258.1245014817,0.2,0.126,-0.962,192.0,0.0,0.0,0.0,0.0,0.0,0.0,0.0,0.0,0.0,1747532142.2556636,0.0, 2025-05-17 18:35:42.255
163.0,750000.0,-634317.205466891,-710617.1203395273,-634765.7602746201,-710272.0094051373,-634725.7059485562,-634898.7978576181,-635043.6371616885,0.2,0.126,-0.962,192.0,0.0,0.0,0.0,0.0,0.0,0.0,0.0,0.0,0.0,1747532142.255756,0.0, 2025-05-17 18:35:42.255
164.0,750000.0,-634275.8100361598,-710570.9863389714,-634724.9012857558,-710225.607183648,-634684.1317038693,-634857.849461776,-635002.5993588686,0.2,0.126,-0.962,192.0,0.0,0.0,0.0,0.0,0.0,0.0,0.0,0.0,0.0,1747532142.2558413,0.0, 2025-05-17 18:35:42.255
165.0,750000.0,-634531.6928066842,-710857.9827377776,-634981.4099051249,-710512.4247684985,-634940.372102305,-635114.1792671895,-635259.1079782377,0.2,0.126,-0.962,192.0,0.0,0.0,0.0,0.0,0.0,0.0,0.0,0.0,0.0,1747532142.2559247,0.0, 2025-05-17 18:35:42.255
166.0,750000.0,-634632.1862497552,-710970.814343788,-635081.6351272626,-710624.9881535755,-635041.5808011986,-635214.8515242161,-635359.4226073531,0.2,0.126,-0.962,192.0,0.0,0.0,0.0,0.0,0.0,0.0,0.0,0.0,0.0,1747532142.256009,0.0, 2025-05-17 18:35:42.256
167.0,750000.0,-634450.5112708225,-710766.8770273777,-634899.6919273963,-710421.67668601,-634859.7270083103,-635033.1765452834,-635177.6582214425,0.2,0.126,-0.962,192.0,0.0,0.0,0.0,0.0,0.0,0.0,0.0,0.0,0.0,1747532142.2560878,0.0, 2025-05-17 18:35:42.256
168.0,750000.0,-634344.1169672152,-710647.8763398977,-634793.3870307669,-710302.3183706186,-634752.7068558582,-634926.6928346984,-635071.3533248131,0.202,0.132,-0.974,192.0,6.0,80.0,4.0,32.0,225.0,144.0,0.0,0.0,0.0,1747532142.2561667,0.0, 2025-05-17 18:35:42.256
169.0,750000.0,-634569.5119583026,-710900.1828313093,-635018.9608358098,-710554.3566410968,-634977.6548120565,-635151.9984188079,-635296.6589089226,0.202,0.132,-0.974,192.0,0.0,0.0,0.0,0.0,0.0,0.0,0.0,0.0,0.0,1747532142.2562609,0.0, 2025-05-17 18:35:42.256
170.0,750000.0,-634729.5504486025,-711079.2650078852,-635178.4628842429,-710733.260003717,-635137.9615232899,-635311.8580951522,-635456.4291782891,0.202,0.132,-0.974,192.0,0.0,0.0,0.0,0.0,0.0,0.0,0.0,0.0,0.0,1747532142.6352468,0.0, 2025-05-17 18:35:42.635
171.0,750000.0,-634582.0289351975,-710913.9515058937,-635030.6731499045,-710568.1253156812,-634990.7976377961,-635163.8001398803,-635308.6394439506,0.202,0.132,-0.974,192.0,0.0,0.0,0.0,0.0,0.0,0.0,0.0,0.0,0.0,1747532142.6353369,0.0, 2025-05-17 18:35:42.635
172.0,750000.0,-634427.5336775224,-710740.9490038096,-634876.803741074,-710395.3910345306,-634835.9447522098,-635009.5731031386,-635154.1441862755,0.202,0.132,-0.974,192.0,0.0,0.0,0.0,0.0,0.0,0.0,0.0,0.0,0.0,1747532142.635438,0.0, 2025-05-17 18:35:42.635
173.0,750000.0,-634618.0599472595,-710954.5422738246,-635067.2406038333,-710608.7160836121,-635025.7557661242,-635200.5464077648,-635344.8492699682,0.202,0.132,-0.974,192.0,0.0,0.0,0.0,0.0,0.0,0.0,0.0,0.0,0.0,1747532142.635488,0.0, 2025-05-17 18:35:42.635
174.0,750000.0,-634827.7193102502,-711189.324997583,-635276.9893738019,-710843.4988073705,-635236.2197919154,-635410.1163637778,-635554.5980399369,0.202,0.132,-0.974,192.0,0.0,0.0,0.0,0.0,0.0,0.0,0.0,0.0,0.0,1747532142.6355777,0.0, 2025-05-17 18:35:42.635
175.0,750000.0,-634729.818669536,-711079.6226357964,-635178.8205121543,-710734.1540734952,-635138.7661860903,-635312.0369091078,-635456.6079922448,0.202,0.132,-0.974,192.0,0.0,0.0,0.0,0.0,0.0,0.0,0.0,0.0,0.0,1747532142.6356647,0.0, 2025-05-17 18:35:42.635
176.0,750000.0,-634525.9707601035,-710851.277214441,-634975.1514166774,-710505.719245162,-634934.7394627023,-635108.2784066532,-635252.7600828124,0.202,0.132,-0.974,192.0,0.0,0.0,0.0,0.0,0.0,0.0,0.0,0.0,0.0,1747532142.63579,0.0, 2025-05-17 18:35:42.635
177.0,750000.0,-634651.3193430089,-710991.6461696203,-635100.9470344719,-710646.267014297,-635059.7304176963,-635234.0740244477,-635378.466293629,0.202,0.132,-0.974,192.0,0.0,0.0,0.0,0.0,0.0,0.0,0.0,0.0,0.0,1747532142.636063,0.0, 2025-05-17 18:35:42.636
178.0,750000.0,-634890.5724156586,-711259.867103084,-635340.468328055,-710914.1303198494,-635299.5199322129,-635473.5059110529,-635618.1664011677,0.196,0.12,-0.974,192.0,6.0,32.0,3.0,192.0,225.0,144.0,0.0,0.0,0.0,1747532142.6361303,0.0, 2025-05-17 18:35:42.636
179.0,750000.0,-634846.0477407036,-711209.8886024819,-635295.3178042553,-710863.9730052917,-635255.1740712136,-635428.2659802755,-635573.2840983014,0.196,0.12,-0.974,192.0,0.0,0.0,0.0,0.0,0.0,0.0,0.0,0.0,0.0,1747532142.6362188,0.0, 2025-05-17 18:35:42.636
180.0,750000.0,-634624.4972496626,-710961.1583901834,-635073.409685303,-710615.6898278821,-635032.9977313278,-635206.5366752788,-635351.1971653935,0.196,0.12,-0.974,192.0,0.0,0.0,0.0,0.0,0.0,0.0,0.0,0.0,0.0,1747532142.6362832,0.0, 2025-05-17 18:35:42.636
181.0,750000.0,-634675.9956688876,-711019.3623327449,-635125.444546395,-710673.6255495102,-635084.0491156637,-635258.6609433485,-635403.1426195076,0.196,0.12,-0.974,192.0,0.0,0.0,0.0,0.0,0.0,0.0,0.0,0.0,0.0,1747532142.6363454,0.0, 2025-05-17 18:35:42.636
182.0,750000.0,-634938.0475208816,-711313.1536618655,-635387.1387704776,-710967.0592507195,-635346.1903746355,-635520.6233883648,-635665.015657546,0.196,0.12,-0.974,192.0,0.0,0.0,0.0,0.0,0.0,0.0,0.0,0.0,0.0,1747532142.6364076,0.0, 2025-05-17 18:35:42.636
183.0,750000.0,-634941.0873581276,-711316.4617200448,-635389.3739449232,-710970.4567158767,-635349.8560607262,-635523.3055976994,-635668.055494792,0.196,0.12,-0.974,192.0,0.0,0.0,0.0,0.0,0.0,0.0,0.0,0.0,0.0,1747532142.6364703,0.0, 2025-05-17 18:35:42.636
184.0,750000.0,-634724.0072159776,-711073.2747403712,-635172.5620237067,-710727.269736203,-635132.6865115984,-635306.2254555494,-635450.5283177529,0.196,0.12,-0.974,192.0,0.0,0.0,0.0,0.0,0.0,0.0,0.0,0.0,0.0,1747532142.636531,0.0, 2025-05-17 18:35:42.636
185.0,750000.0,-634727.0470532236,-711076.5827985505,-635176.1383028196,-710730.756608338,-635135.1899069775,-635309.3546997732,-635454.015189888,0.196,0.12,-0.974,192.0,0.0,0.0,0.0,0.0,0.0,0.0,0.0,0.0,0.0,1747532142.6365924,0.0, 2025-05-17 18:35:42.636
186.0,750000.0,-634980.7840562802,-711360.5393601108,-635430.1435268096,-711014.9813908316,-635389.1951309675,-635563.2705167854,-635707.7521929446,0.196,0.12,-0.974,192.0,0.0,0.0,0.0,0.0,0.0,0.0,0.0,0.0,0.0,1747532142.6366997,0.0, 2025-05-17 18:35:42.636
187.0,750000.0,-635048.9121733799,-711436.6246982366,-635497.9140159981,-711091.1561359353,-635457.7702829564,-635631.1304129518,-635775.7909030665,0.196,0.12,-0.974,192.0,0.0,0.0,0.0,0.0,0.0,0.0,0.0,0.0,0.0,1747532142.6367848,0.0, 2025-05-17 18:35:42.636
188.0,750000.0,-634839.5210313227,-711202.1101954115,-635288.0758390517,-710856.6416331102,-635248.2897339213,-635421.8286778723,-635566.3997610093,0.184,0.108,-0.972,192.0,5.0,192.0,3.0,96.0,225.0,160.0,0.0,0.0,0.0,1747532142.636846,0.0, 2025-05-17 18:35:42.636
189.0,750000.0,-634774.6115654245,-711129.5117294206,-635224.0604429317,-710784.4007950308,-635183.4696750009,-635357.455653841,-635502.2055509336,0.184,0.108,-0.972,192.0,0.0,0.0,0.0,0.0,0.0,0.0,0.0,0.0,0.0,1747532142.6369448,0.0, 2025-05-17 18:35:42.636
190.0,750000.0,-635018.7820218542,-711403.365302487,-635468.5885272728,-711057.3602983189,-635427.6401314307,-635601.6261102709,-635746.1077864299,0.184,0.108,-0.972,192.0,0.0,0.0,0.0,0.0,0.0,0.0,0.0,0.0,0.0,1747532142.636994,0.0, 2025-05-17 18:35:42.636
191.0,750000.0,-635136.2627907112,-711534.1677110395,-635585.3540403073,-711188.2521138493,-635545.2997142434,-635718.3916233053,-635862.8732994645,0.184,0.108,-0.972,192.0,0.0,0.0,0.0,0.0,0.0,0.0,0.0,0.0,0.0,1747532142.6370423,0.0, 2025-05-17 18:35:42.637
192.0,750000.0,-634963.1708816494,-711340.2439761453,-635411.5468754228,-710994.9542277998,-635372.2972121594,-635544.9420863321,-635689.4237624912,0.184,0.108,-0.972,192.0,0.0,0.0,0.0,0.0,0.0,0.0,0.0,0.0,0.0,1747532142.6371057,0.0, 2025-05-17 18:35:42.637
193.0,750000.0,-634852.1274151955,-711216.0576839516,-635300.7716299024,-710870.2314937391,-635260.6278968606,-635434.0774338339,-635578.6485169707,0.184,0.108,-0.972,192.0,0.0,0.0,0.0,0.0,0.0,0.0,0.0,0.0,0.0,1747532142.6371543,0.0, 2025-05-17 18:35:42.637
194.0,750000.0,-635067.2406038333,-711457.0988961577,-635516.510667385,-711111.2727059452,-635475.3834575872,-635649.7270643386,-635794.11933352,0.184,0.108,-0.972,192.0,0.0,0.0,0.0,0.0,0.0,0.0,0.0,0.0,0.0,1747532142.6372037,0.0, 2025-05-17 18:35:42.637
195.0,750000.0,-635239.438443117,-711649.6815263845,-635688.4402857352,-711303.9447431499,-635647.9389247822,-635821.8354966445,-635965.8701379144,0.184,0.108,-0.972,192.0,0.0,0.0,0.0,0.0,0.0,0.0,0.0,0.0,0.0,1747532142.637252,0.0, 2025-05-17 18:35:42.637
196.0,750000.0,-635102.3775461171,-711496.0803384878,-635550.8429468684,-711150.343555253,-635511.0568417379,-635684.2381577776,-635828.541019981,0.184,0.108,-0.972,192.0,0.0,0.0,0.0,0.0,0.0,0.0,0.0,0.0,0.0,1747532142.6373007,0.0, 2025-05-17 18:35:42.637
197.0,750000.0,-634928.9280091439,-711302.3354175491,-635377.7510378064,-710956.1515994254,-635337.7861187203,-635511.4144696492,-635655.7173318526,0.184,0.108,-0.972,192.0,0.0,0.0,0.0,0.0,0.0,0.0,0.0,0.0,0.0,1747532142.6373494,0.0, 2025-05-17 18:35:42.637
198.0,750000.0,-635094.0626971797,-711487.407861639,-635543.6903886426,-711141.0452295596,-635502.9208067561,-635677.0855995519,-635821.120240822,0.186,0.1,-0.96,192.0,5.0,208.0,3.0,32.0,226.0,0.0,0.0,0.0,0.0,1747532142.6373978,0.0, 2025-05-17 18:35:42.637
199.0,750000.0,-635309.1758858175,-711728.002038956,-635758.7141703027,-711382.3546626992,-635718.3022163275,-635891.8411602785,-636036.0546155041,0.186,0.1,-0.96,192.0,0.0,0.0,0.0,0.0,0.0,0.0,0.0,0.0,0.0,1747532142.6374507,0.0, 2025-05-17 18:35:42.637
200.0,750000.0,-635230.1401174236,-711639.2209099795,-635678.7843321306,-711293.394719767,-635639.0876339779,-635812.2689500176,-635956.5718122211,0.186,0.1,-0.96,192.0,0.0,0.0,0.0,0.0,0.0,0.0,0.0,0.0,0.0,1747532142.6374996,0.0, 2025-05-17 18:35:42.637
201.0,750000.0,-635020.3019404772,-711404.3487792432,-635469.3037830953,-711058.7014029863,-635428.981236098,-635602.4307730711,-635746.9124492303,0.186,0.1,-0.96,192.0,0.0,0.0,0.0,0.0,0.0,0.0,0.0,0.0,0.0,1747532142.6375608,0.0, 2025-05-17 18:35:42.637
202.0,750000.0,-635132.5971046207,-711530.2338040154,-635582.2247960836,-711184.4076138029,-635541.0975862858,-635714.547123259,-635859.3864273294,0.186,0.1,-0.96,192.0,0.0,0.0,0.0,0.0,0.0,0.0,0.0,0.0,0.0,1747532142.63761,0.0, 2025-05-17 18:35:42.637
203.0,750000.0,-635370.5984795807,-711796.7560049006,-635819.6003221989,-711450.5721867767,-635779.098961246,-635952.637905197,-636097.1195813561,0.186,0.1,-0.96,192.0,0.0,0.0,0.0,0.0,0.0,0.0,0.0,0.0,0.0,1747532142.6376643,0.0, 2025-05-17 18:35:42.637
204.0,750000.0,-635337.428490809,-711759.2050742155,-635786.072705516,-711413.4682909809,-635746.2866003856,-635919.3785094474,-636063.9495925844,0.186,0.1,-0.96,192.0,0.0,0.0,0.0,0.0,0.0,0.0,0.0,0.0,0.0,1747532142.6377437,0.0, 2025-05-17 18:35:42.637
205.0,750000.0,-635119.6330928366,-711515.3922456971,-635568.4561214991,-711169.5660554846,-635528.3123884574,-635701.5831114749,-635846.0647876341,0.186,0.1,-0.96,192.0,0.0,0.0,0.0,0.0,0.0,0.0,0.0,0.0,0.0,1747532142.6378288,0.0, 2025-05-17 18:35:42.637
206.0,750000.0,-635167.4658259709,-711569.2152463455,-635616.7358895226,-711223.0314282217,-635575.7874936805,-635749.6840655428,-635893.8975207683,0.186,0.1,-0.96,192.0,0.0,0.0,0.0,0.0,0.0,0.0,0.0,0.0,0.0,1747532142.637913,0.0, 2025-05-17 18:35:42.637
207.0,750000.0,-635433.1833640556,-711866.6722615567,-635882.1852066738,-711520.3990364551,-635841.5050317652,-636015.4016036275,-636159.9726867643,0.186,0.1,-0.96,192.0,0.0,0.0,0.0,0.0,0.0,0.0,0.0,0.0,0.0,1747532142.638019,0.0, 2025-05-17 18:35:42.638
208.0,750000.0,-635457.949096912,-711894.03079677,-635906.4144976634,-711548.2046065575,-635866.8072064886,-636039.630894617,-636184.649012643,0.196,0.108,-0.952,192.0,6.0,32.0,3.0,96.0,226.0,64.0,0.0,0.0,0.0,1747532142.638103,0.0, 2025-05-17 18:35:42.638
209.0,750000.0,-635239.3490361392,-711648.966270562,-635687.993250846,-711303.6765222164,-635648.2071457156,-635821.2096477997,-635965.8701379144,0.196,0.108,-0.952,192.0,0.0,0.0,0.0,0.0,0.0,0.0,0.0,0.0,0.0,1747532142.638183,0.0, 2025-05-17 18:35:42.638
210.0,750000.0,-635226.3850243551,-711635.465816911,-635675.8339018624,-711289.3714057651,-635634.9749129982,-635808.8714848604,-635953.7107889308,0.196,0.108,-0.952,192.0,0.0,0.0,0.0,0.0,0.0,0.0,0.0,0.0,0.0,1747532142.6382325,0.0, 2025-05-17 18:35:42.638
211.0,750000.0,-635478.7809227444,-711918.1706807817,-635928.0509862961,-711571.2716068354,-635886.9237764983,-636060.9991623163,-636205.8384663867,0.196,0.108,-0.952,192.0,0.0,0.0,0.0,0.0,0.0,0.0,0.0,0.0,0.0,1747532142.638281,0.0, 2025-05-17 18:35:42.638
212.0,750000.0,-635551.6476096688,-711999.4416236213,-636000.5600453091,-711652.9001775861,-635960.058684356,-636133.6870352849,-636278.3475253996,0.196,0.108,-0.952,192.0,0.0,0.0,0.0,0.0,0.0,0.0,0.0,0.0,0.0,1747532142.6383295,0.0, 2025-05-17 18:35:42.638
213.0,750000.0,-635359.6908282866,-711784.4178419611,-635808.4244499713,-711438.5916517486,-635768.7277518187,-635941.7302539027,-636086.2119300618,0.196,0.108,-0.952,192.0,0.0,0.0,0.0,0.0,0.0,0.0,0.0,0.0,0.0,1747532142.638378,0.0, 2025-05-17 18:35:42.638
214.0,750000.0,-635285.7512576284,-711701.6269804987,-635734.7531002467,-711355.6219763305,-635694.0729253379,-635867.7012762667,-636011.9147314924,0.196,0.108,-0.952,192.0,0.0,0.0,0.0,0.0,0.0,0.0,0.0,0.0,0.0,1747532142.6384268,0.0, 2025-05-17 18:35:42.638
215.0,750000.0,-635521.2492372096,-711965.8245999605,-635970.7875216947,-711619.1043399697,-635929.6603118969,-636103.9145116705,-636248.2173738739,0.196,0.108,-0.952,192.0,0.0,0.0,0.0,0.0,0.0,0.0,0.0,0.0,0.0,1747532142.6384754,0.0, 2025-05-17 18:35:42.638
216.0,750000.0,-635648.2965526935,-712108.071101674,-636097.2983953117,-711761.529655639,-636056.9758483144,-636230.693606221,-636375.0858754022,0.196,0.108,-0.952,192.0,0.0,0.0,0.0,0.0,0.0,0.0,0.0,0.0,0.0,1747532142.6385398,0.0, 2025-05-17 18:35:42.638
217.0,750000.0,-635481.6419460347,-711921.1211110498,-635930.1967537638,-711575.0266999039,-635890.5000556111,-636063.5919646731,-636208.16304781,0.196,0.108,-0.952,192.0,0.0,0.0,0.0,0.0,0.0,0.0,0.0,0.0,0.0,1747532142.638589,0.0, 2025-05-17 18:35:42.638
218.0,750000.0,-635354.0581886838,-711778.2487604915,-635802.6129964129,-711431.9755353899,-635762.4692633712,-635936.0976143,-636080.3110695257,0.2,0.12,-0.962,192.0,6.0,64.0,3.0,192.0,225.0,240.0,0.0,0.0,0.0,1747532142.638638,0.0, 2025-05-17 18:35:42.638
219.0,750000.0,-635564.4328074972,-712014.0149610061,-636013.6134640711,-711667.3841079932,-635972.7544752067,-636146.9192680025,-636291.0433162503,0.2,0.12,-0.962,192.0,0.0,0.0,0.0,0.0,0.0,0.0,0.0,0.0,0.0,1747532142.638716,0.0, 2025-05-17 18:35:42.638
220.0,750000.0,-635734.9319142023,-712204.3624167875,-636183.9337568205,-711858.2680056415,-636143.611209823,-636316.9713398184,-636461.9000508667,0.2,0.12,-0.962,192.0,0.0,0.0,0.0,0.0,0.0,0.0,0.0,0.0,0.0,1747532142.6387708,0.0, 2025-05-17 18:35:42.638
221.0,750000.0,-635606.7223080066,-712060.595996451,-636055.4559296913,-711715.2168411275,-636016.11685945,-636188.9405475785,-636333.6010376932,0.2,0.12,-0.962,192.0,0.0,0.0,0.0,0.0,0.0,0.0,0.0,0.0,0.0,1747532142.638838,0.0, 2025-05-17 18:35:42.638
222.0,750000.0,-635435.5973524568,-711869.4438778692,-635884.599195075,-711523.438873701,-635844.4554620333,-636017.8155920287,-636162.5654891211,0.2,0.12,-0.962,192.0,0.0,0.0,0.0,0.0,0.0,0.0,0.0,0.0,0.0,1747532142.6388872,0.0, 2025-05-17 18:35:42.638
223.0,750000.0,-635598.7650869805,-712052.4599614692,-636048.12455751,-711706.007922412,-636006.9973477123,-636181.2515474858,-636326.2696655119,0.2,0.12,-0.962,192.0,0.0,0.0,0.0,0.0,0.0,0.0,0.0,0.0,0.0,1747532142.6389356,0.0, 2025-05-17 18:35:42.638
224.0,750000.0,-635813.1630197958,-712292.5176969193,-636262.4330833475,-711946.1550648398,-636221.9317223944,-636395.738887279,-636540.4887843715,0.2,0.12,-0.962,192.0,0.0,0.0,0.0,0.0,0.0,0.0,0.0,0.0,0.0,1747532142.6389844,0.0, 2025-05-17 18:35:42.638
225.0,750000.0,-635739.8492979824,-712209.9056494124,-636188.672326645,-711863.9006452443,-636148.8862215145,-636321.4416887095,-636466.4598067355,0.2,0.12,-0.962,192.0,0.0,0.0,0.0,0.0,0.0,0.0,0.0,0.0,0.0,1747532142.639033,0.0, 2025-05-17 18:35:42.639
226.0,750000.0,-635544.7632723765,-711991.6632165508,-635993.6757080168,-711645.2111774936,-635953.3531610195,-636126.3556631036,-636271.1055601961,0.2,0.12,-0.962,192.0,0.0,0.0,0.0,0.0,0.0,0.0,0.0,0.0,0.0,1747532142.6390817,0.0, 2025-05-17 18:35:42.639
227.0,750000.0,-635633.9020292643,-712091.1731828658,-636083.3509067716,-711744.7211438086,-636042.134289996,-636216.0308618583,-636360.7807589509,0.2,0.12,-0.962,192.0,0.0,0.0,0.0,0.0,0.0,0.0,0.0,0.0,0.0,1747532142.63913,0.0, 2025-05-17 18:35:42.639
228.0,750000.0,-635868.7741600006,-712353.5826627711,-636317.5077816853,-712007.3094376695,-636277.0064207324,-636450.4559577055,-636595.5634827093,0.194,0.126,-0.966,192.0,6.0,16.0,3.0,240.0,225.0,208.0,0.0,0.0,0.0,1747532142.6391788,0.0, 2025-05-17 18:35:42.639
229.0,750000.0,-635855.6313342609,-712339.1881393419,-636304.18614199,-711993.3619491294,-636264.6682577931,-636437.760166855,-636582.5994709253,0.194,0.126,-0.966,192.0,0.0,0.0,0.0,0.0,0.0,0.0,0.0,0.0,0.0,1747532142.6392317,0.0, 2025-05-17 18:35:42.639
230.0,750000.0,-635654.018599274,-712113.3461133655,-636102.3051860697,-711767.6987371086,-636062.608487917,-636236.0580248903,-636380.718515005,0.194,0.126,-0.966,192.0,0.0,0.0,0.0,0.0,0.0,0.0,0.0,0.0,0.0,1747532142.6392803,0.0, 2025-05-17 18:35:42.639
231.0,750000.0,-635680.4830647091,-712143.2080439577,-636128.7696515048,-711796.5771909448,-636088.2682905517,-636262.701304281,-636406.8253525288,0.194,0.126,-0.966,192.0,0.0,0.0,0.0,0.0,0.0,0.0,0.0,0.0,0.0,1747532142.6393433,0.0, 2025-05-17 18:35:42.639
232.0,750000.0,-635933.9518468323,-712427.5222334292,-636382.5066545614,-712080.5337525051,-636342.4523284975,-636516.259493382,-636660.4729486076,0.194,0.126,-0.966,192.0,0.0,0.0,0.0,0.0,0.0,0.0,0.0,0.0,0.0,1747532142.639392,0.0, 2025-05-17 18:35:42.639
233.0,750000.0,-635965.9595448923,-712463.5532454912,-636414.7825735549,-712116.9223924783,-636375.3540963357,-636548.267191442,-636692.9276815567,0.194,0.126,-0.966,192.0,0.0,0.0,0.0,0.0,0.0,0.0,0.0,0.0,0.0,1747532142.6394632,0.0, 2025-05-17 18:35:42.639
234.0,750000.0,-635760.9493447483,-712234.3137543576,-636209.5041524774,-711887.8617153004,-636170.3438961917,-636343.3463982757,-636488.0068883904,0.194,0.126,-0.966,192.0,0.0,0.0,0.0,0.0,0.0,0.0,0.0,0.0,0.0,1747532142.6395116,0.0, 2025-05-17 18:35:42.639
235.0,750000.0,-635725.2759605976,-712194.080614338,-636174.2778032158,-711847.986203192,-636133.9552562184,-636307.8518280807,-636452.2440972619,0.194,0.126,-0.966,192.0,0.0,0.0,0.0,0.0,0.0,0.0,0.0,0.0,0.0,1747532142.6395605,0.0, 2025-05-17 18:35:42.639
236.0,750000.0,-635962.8303006686,-712460.155780334,-636412.0109572425,-712113.4355203432,-636371.3307823337,-636545.227354196,-636689.4408094217,0.194,0.126,-0.966,192.0,0.0,0.0,0.0,0.0,0.0,0.0,0.0,0.0,0.0,1747532142.6396286,0.0, 2025-05-17 18:35:42.639
237.0,750000.0,-636059.2110227598,-712567.712374653,-636507.9446444446,-712221.2603355957,-636468.0691323363,-636641.3398553538,-636785.7321245351,0.194,0.126,-0.966,192.0,0.0,0.0,0.0,0.0,0.0,0.0,0.0,0.0,0.0,1747532142.6396785,0.0, 2025-05-17 18:35:42.639
238.0,750000.0,-635887.8178462766,-712375.7555932708,-636336.3726540057,-712029.6611821247,-636296.9441767865,-636469.9466788706,-636614.9647968966,0.188,0.128,-0.962,192.0,5.0,224.0,4.0,0.0,225.0,240.0,0.0,0.0,0.0,1747532142.639727,0.0, 2025-05-17 18:35:42.639
239.0,750000.0,-635800.8248568565,-712278.6596153569,-636249.7372924968,-711932.028762344,-636209.5935594551,-636382.8642824726,-636527.9718074766,0.188,0.128,-0.962,192.0,0.0,0.0,0.0,0.0,0.0,0.0,0.0,0.0,0.0,1747532142.6397803,0.0, 2025-05-17 18:35:42.639
240.0,750000.0,-636014.3287198936,-712518.0020949844,-636463.3305625118,-712170.7453931267,-636422.8292015587,-636596.7257734211,-636741.4756705136,0.188,0.128,-0.962,192.0,0.0,0.0,0.0,0.0,0.0,0.0,0.0,0.0,0.0,1747532142.6398344,0.0, 2025-05-17 18:35:42.639
241.0,750000.0,-636148.1709656919,-712667.4905619015,-636596.8151803989,-712321.127929822,-636557.2972962019,-636730.2997982859,-636875.1391023564,0.188,0.128,-0.962,192.0,0.0,0.0,0.0,0.0,0.0,0.0,0.0,0.0,0.0,1747532142.6398883,0.0, 2025-05-17 18:35:42.639
242.0,750000.0,-636003.152847666,-712505.1274901781,-636451.707655395,-712158.7648580987,-636412.1897711981,-636585.1028663043,-636729.6739494413,0.188,0.128,-0.962,192.0,0.0,0.0,0.0,0.0,0.0,0.0,0.0,0.0,0.0,1747532142.6399405,0.0, 2025-05-17 18:35:42.639
243.0,750000.0,-635865.555508799,-712351.2580813478,-636314.0209095504,-712004.3590074014,-636273.7877695308,-636447.4161204596,-636592.25542453,0.188,0.128,-0.962,192.0,0.0,0.0,0.0,0.0,0.0,0.0,0.0,0.0,0.0,1747532142.639994,0.0, 2025-05-17 18:35:42.639
244.0,750000.0,-636043.6542086189,-712550.9038628226,-636492.5666442594,-712203.6471609649,-636451.8864693507,-636625.8724481908,-636770.8905662168,0.188,0.128,-0.962,192.0,0.0,0.0,0.0,0.0,0.0,0.0,0.0,0.0,0.0,1747532142.6400492,0.0, 2025-05-17 18:35:42.640
245.0,750000.0,-636231.4982690214,-712761.3678886137,-636680.5895186174,-712414.111186756,-636640.5351925534,-636813.8953225488,-636959.0922545305,0.188,0.128,-0.962,192.0,0.0,0.0,0.0,0.0,0.0,0.0,0.0,0.0,0.0,1747532142.640246,0.0, 2025-05-17 18:35:42.640
246.0,750000.0,-636132.5247445733,-712650.2350151819,-636581.6159941693,-712303.8723831025,-636542.1875169501,-636714.9217981007,-636860.1187300824,0.188,0.128,-0.962,192.0,0.0,0.0,0.0,0.0,0.0,0.0,0.0,0.0,0.0,1747532142.640296,0.0, 2025-05-17 18:35:42.640
247.0,750000.0,-635955.2307075538,-712451.3938965076,-636404.3219571498,-712105.2100783838,-636364.0888171302,-636537.9853889925,-636682.6458791073,0.188,0.128,-0.962,192.0,0.0,0.0,0.0,0.0,0.0,0.0,0.0,0.0,0.0,1747532142.640345,0.0, 2025-05-17 18:35:42.640
248.0,750000.0,-636082.18861606,-712593.3721772877,-636531.2798656559,-712246.562510319,-636490.5102837695,-636664.8538905209,-636809.33556668,0.192,0.116,-0.952,192.0,6.0,0.0,3.0,160.0,226.0,64.0,0.0,0.0,0.0,1747532142.6404233,0.0, 2025-05-17 18:35:42.640
249.0,750000.0,-636300.9674907884,-712837.9896686065,-636749.9693334067,-712491.2694086158,-636709.6467864093,-636883.1857303603,-637027.846220475,0.192,0.116,-0.952,192.0,0.0,0.0,0.0,0.0,0.0,0.0,0.0,0.0,0.0,1747532142.640476,0.0, 2025-05-17 18:35:42.640
250.0,750000.0,-636261.7178275249,-712793.8226215629,-636710.5408561875,-712447.8176173947,-636671.0229719905,-636844.1148810524,-636988.7753711671,0.192,0.116,-0.952,192.0,0.0,0.0,0.0,0.0,0.0,0.0,0.0,0.0,0.0,1747532142.6405244,0.0, 2025-05-17 18:35:42.640
251.0,750000.0,-636063.6813716509,-712572.3615374997,-636512.5938072912,-712226.2671263537,-636472.9865161165,-636646.257239134,-636790.828322271,0.192,0.116,-0.952,192.0,0.0,0.0,0.0,0.0,0.0,0.0,0.0,0.0,0.0,1747532142.6405857,0.0, 2025-05-17 18:35:42.640
252.0,750000.0,-636131.0942329281,-712647.731619803,-636579.6490406572,-712301.2795807457,-636539.4159006376,-636713.4018794778,-636858.0623695925,0.192,0.116,-0.952,192.0,0.0,0.0,0.0,0.0,0.0,0.0,0.0,0.0,0.0,1747532142.6406343,0.0, 2025-05-17 18:35:42.640
253.0,750000.0,-636380.2714801158,-712927.3966464278,-636829.0945087784,-712580.2293515479,-636788.7719617811,-636962.6685336434,-637107.3290237581,0.192,0.116,-0.952,192.0,0.0,0.0,0.0,0.0,0.0,0.0,0.0,0.0,0.0,1747532142.6406822,0.0, 2025-05-17 18:35:42.640
254.0,750000.0,-636377.678677759,-712924.6250301152,-636826.2334854881,-712577.6365491911,-636787.0732292024,-636959.9863243087,-637104.7362214013,0.192,0.116,-0.952,192.0,0.0,0.0,0.0,0.0,0.0,0.0,0.0,0.0,0.0,1747532142.6407306,0.0, 2025-05-17 18:35:42.640
255.0,750000.0,-636174.635431127,-712697.2630855159,-636623.1902388561,-712350.7216394808,-636584.4770174596,-636757.300705588,-636901.9611957028,0.192,0.116,-0.952,192.0,0.0,0.0,0.0,0.0,0.0,0.0,0.0,0.0,0.0,1747532142.6407788,0.0, 2025-05-17 18:35:42.640
0.0,750000.0,-636188.0464778002,-712712.4622717455,-636636.9589134406,-712365.3843838435,-636596.9939943545,-636770.7117522612,-636915.819277265,0.192,0.116,-0.952,192.0,0.0,0.0,0.0,0.0,0.0,0.0,0.0,0.0,0.0,1747532142.6408374,0.0, 2025-05-17 18:35:42.640
1.0,750000.0,-636440.6211901451,-712995.0777286384,-636889.4442188077,-712647.8210267808,-636849.2110787883,-637023.0182436727,-637167.8575477431,0.192,0.116,-0.952,192.0,0.0,0.0,0.0,0.0,0.0,0.0,0.0,0.0,0.0,1747532142.640886,0.0, 2025-05-17 18:35:42.640
2.0,750000.0,-636487.4704465235,-713047.291403686,-636935.9358472748,-712700.1241088063,-636896.5967770334,-637069.5992791175,-637214.1703622545,0.194,0.106,-0.96,192.0,6.0,16.0,3.0,80.0,226.0,0.0,0.0,0.0,0.0,1747532142.6409345,0.0, 2025-05-17 18:35:42.640
3.0,750000.0,-636285.5000836253,-712821.8070056209,-636734.3231122879,-712474.5503037632,-636694.9840420466,-636867.7183231972,-637012.4682202898,0.194,0.106,-0.96,192.0,0.0,0.0,0.0,0.0,0.0,0.0,0.0,0.0,0.0,1747532142.6409864,0.0, 2025-05-17 18:35:42.640
4.0,750000.0,-636235.8792109346,-712766.285272394,-636685.5963093754,-712419.117977514,-636644.8267274889,-636818.6338923733,-636963.5626034215,0.194,0.106,-0.96,192.0,0.0,0.0,0.0,0.0,0.0,0.0,0.0,0.0,0.0,1747532142.641049,0.0, 2025-05-17 18:35:42.641
5.0,750000.0,-636458.8602136207,-713015.6413335373,-636908.1302771724,-712668.4740386575,-636867.4501022637,-637041.1678601704,-637186.4541991298,0.194,0.106,-0.96,192.0,0.0,0.0,0.0,0.0,0.0,0.0,0.0,0.0,0.0,1747532142.6410973,0.0, 2025-05-17 18:35:42.641
6.0,750000.0,-636566.1485870063,-713135.7149047512,-637015.2398366022,-712788.9946447605,-636975.2749175162,-637148.4562335559,-637293.4743515819,0.194,0.106,-0.96,192.0,0.0,0.0,0.0,0.0,0.0,0.0,0.0,0.0,0.0,1747532142.6411457,0.0, 2025-05-17 18:35:42.641
7.0,750000.0,-636407.6300153292,-712958.242053776,-636856.363637014,-712611.5217937854,-636817.0245667726,-636989.848254901,-637134.8663729271,0.194,0.106,-0.96,192.0,0.0,0.0,0.0,0.0,0.0,0.0,0.0,0.0,0.0,1747532142.6412177,0.0, 2025-05-17 18:35:42.641
8.0,750000.0,-636309.7293746149,-712848.718505945,-636758.820624211,-712501.9088389765,-636718.8557051249,-636891.8582072089,-637037.3233601241,0.194,0.106,-0.96,192.0,0.0,0.0,0.0,0.0,0.0,0.0,0.0,0.0,0.0,1747532142.745793,0.0, 2025-05-17 18:35:42.745
9.0,750000.0,-636516.1700864042,-713079.6567296573,-636965.7977778671,-712732.8470626888,-636925.1176029585,-637098.8353608651,-637243.7640719133,0.194,0.106,-0.96,192.0,0.0,0.0,0.0,0.0,0.0,0.0,0.0,0.0,0.0,1747532142.7458868,0.0, 2025-05-17 18:35:42.745
10.0,750000.0,-636667.0890649664,-713248.5465107616,-637116.359128518,-712901.3792158818,-637076.2153954763,-637249.4861184938,-637394.5042365199,0.194,0.106,-0.96,192.0,0.0,0.0,0.0,0.0,0.0,0.0,0.0,0.0,0.0,1747532142.7459922,0.0, 2025-05-17 18:35:42.745
11.0,750000.0,-636538.8794587707,-713104.3330555359,-636987.4342664998,-712757.6127955453,-636948.0057892806,-637120.7400704313,-637265.7581884573,0.194,0.106,-0.96,192.0,0.0,0.0,0.0,0.0,0.0,0.0,0.0,0.0,0.0,1747532142.7460551,0.0, 2025-05-17 18:35:42.746
12.0,750000.0,-636387.0664104302,-712934.7280186091,-636835.7106251372,-712587.9183516406,-636796.0139269846,-636969.3740569799,-637114.0345470947,0.188,0.104,-0.964,192.0,5.0,224.0,3.0,64.0,225.0,224.0,0.0,0.0,0.0,1747532142.7461164,0.0, 2025-05-17 18:35:42.746
13.0,750000.0,-636548.7142263311,-713116.5818114975,-636997.8054759271,-712769.0568887064,-636957.5723359075,-637131.4689077699,-637276.0399909067,0.188,0.104,-0.964,192.0,0.0,0.0,0.0,0.0,0.0,0.0,0.0,0.0,0.0,1747532142.746182,0.0, 2025-05-17 18:35:42.746
14.0,750000.0,-636752.9197636747,-713344.9272328529,-637201.6533853594,-712997.6705309952,-637161.867280229,-637335.5850381356,-637480.4243422061,0.188,0.104,-0.964,192.0,0.0,0.0,0.0,0.0,0.0,0.0,0.0,0.0,0.0,1747532142.74624,0.0, 2025-05-17 18:35:42.746
15.0,750000.0,-636664.4962626096,-713245.32785956,-637112.9616633608,-712898.6970065471,-637073.8014070751,-637246.9827231149,-637391.6432132296,0.188,0.104,-0.964,192.0,0.0,0.0,0.0,0.0,0.0,0.0,0.0,0.0,0.0,1747532142.746288,0.0, 2025-05-17 18:35:42.746
16.0,750000.0,-636475.1322835842,-713033.0756942125,-636923.4188703798,-712686.176620266,-636883.9903931607,-637057.350523156,-637202.0110132708,0.188,0.104,-0.964,192.0,0.0,0.0,0.0,0.0,0.0,0.0,0.0,0.0,0.0,1747532142.7463367,0.0, 2025-05-17 18:35:42.746
17.0,750000.0,-636590.288471018,-713162.0899632085,-637038.7538717692,-712814.743854373,-636998.6995457053,-637172.5961175676,-637317.2566076823,0.188,0.104,-0.964,192.0,0.0,0.0,0.0,0.0,0.0,0.0,0.0,0.0,0.0,1747532142.746385,0.0, 2025-05-17 18:35:42.746
18.0,750000.0,-636819.7961830851,-713419.939687245,-637269.0662466367,-713072.5935784094,-637229.1013275506,-637402.2826435904,-637547.479575572,0.188,0.104,-0.964,192.0,0.0,0.0,0.0,0.0,0.0,0.0,0.0,0.0,0.0,1747532142.7464335,0.0, 2025-05-17 18:35:42.746
19.0,750000.0,-636787.5202640916,-713383.2828263382,-637236.0750718206,-713036.3837523918,-637196.5571876237,-637369.5596897078,-637514.5778077338,0.188,0.104,-0.964,192.0,0.0,0.0,0.0,0.0,0.0,0.0,0.0,0.0,0.0,1747532142.7465012,0.0, 2025-05-17 18:35:42.746
20.0,750000.0,-636585.3710872377,-713156.9937654727,-637033.836487989,-712810.0052845485,-636994.4974177477,-637167.4999198318,-637312.6968518135,0.188,0.104,-0.964,192.0,0.0,0.0,0.0,0.0,0.0,0.0,0.0,0.0,0.0,1747532142.7465503,0.0, 2025-05-17 18:35:42.746
21.0,750000.0,-636635.7966227289,-713213.856603367,-637084.6196513915,-712866.1528666202,-637044.4759183498,-637217.925455323,-637363.2117942824,0.188,0.104,-0.964,192.0,0.0,0.0,0.0,0.0,0.0,0.0,0.0,0.0,0.0,1747532142.7465987,0.0, 2025-05-17 18:35:42.746
22.0,750000.0,-636877.5530907576,-713484.1338973206,-637326.6443403536,-713136.6983815073,-637286.411200334,-637459.5925163737,-637605.0576692888,0.188,0.114,-0.966,192.0,5.0,224.0,3.0,144.0,225.0,208.0,0.0,0.0,0.0,1747532142.746678,0.0, 2025-05-17 18:35:42.746
23.0,750000.0,-636896.7755909892,-713505.7703859532,-637345.5986196516,-713158.2454631622,-637306.2595494103,-637478.9044235832,-637624.2801695204,0.188,0.114,-0.966,192.0,0.0,0.0,0.0,0.0,0.0,0.0,0.0,0.0,0.0,1747532142.7467313,0.0, 2025-05-17 18:35:42.746
24.0,750000.0,-636692.748867601,-713277.33555762,-637141.3036753301,-712929.9894487846,-637101.875198111,-637274.5200722838,-637419.6275972876,0.188,0.114,-0.966,192.0,0.0,0.0,0.0,0.0,0.0,0.0,0.0,0.0,0.0,1747532142.7467844,0.0, 2025-05-17 18:35:42.746
25.0,750000.0,-636686.4903791536,-713270.1829993944,-637135.2240008384,-712922.8368905588,-637094.9908608188,-637268.5298047698,-637413.5479227958,0.188,0.114,-0.966,192.0,0.0,0.0,0.0,0.0,0.0,0.0,0.0,0.0,0.0,1747532142.7468555,0.0, 2025-05-17 18:35:42.746
26.0,750000.0,-636928.6938820713,-713541.6225840596,-637377.8745386451,-713194.1870682463,-637337.8202125812,-637511.2697495545,-637656.2878675804,0.188,0.114,-0.966,192.0,0.0,0.0,0.0,0.0,0.0,0.0,0.0,0.0,0.0,1747532142.746904,0.0, 2025-05-17 18:35:42.746
27.0,750000.0,-637000.7559061951,-713621.7312361874,-637449.3107139244,-713274.7427552632,-637409.7928297273,-637583.1529597227,-637728.0816707709,0.188,0.114,-0.966,192.0,0.0,0.0,0.0,0.0,0.0,0.0,0.0,0.0,0.0,1747532142.746952,0.0, 2025-05-17 18:35:42.746
28.0,750000.0,-636815.7728690831,-713414.1282336866,-637263.9700489009,-713067.8550085849,-637224.9886065709,-637398.0805156328,-637542.9198197031,0.188,0.114,-0.966,192.0,0.0,0.0,0.0,0.0,0.0,0.0,0.0,0.0,0.0,1747532142.7470732,0.0, 2025-05-17 18:35:42.747
29.0,750000.0,-636758.9100311887,-713350.6492794334,-637207.4648389178,-713003.8396124649,-637167.8575477431,-637341.396491694,-637486.1463887866,0.188,0.114,-0.966,192.0,0.0,0.0,0.0,0.0,0.0,0.0,0.0,0.0,0.0,1747532142.7471232,0.0, 2025-05-17 18:35:42.747
30.0,750000.0,-636989.3118130341,-713609.4824802259,-637438.492469608,-713262.1363713904,-637398.1699226105,-637572.4241223842,-637717.1740194767,0.188,0.114,-0.966,192.0,0.0,0.0,0.0,0.0,0.0,0.0,0.0,0.0,0.0,1747532142.7689192,0.0, 2025-05-17 18:35:42.768
31.0,750000.0,-637104.5574074456,-713738.2285282884,-637553.9168779751,-713391.1506403865,-637514.3095868003,-637687.6697167957,-637832.1513929548,0.188,0.114,-0.966,192.0,0.0,0.0,0.0,0.0,0.0,0.0,0.0,0.0,0.0,1747532142.768998,0.0, 2025-05-17 18:35:42.768
32.0,750000.0,-636940.2273822102,-713553.6925260655,-637389.2292248284,-713207.0616730526,-637350.2477824984,-637522.982063649,-637667.8213677193,0.182,0.116,-0.978,192.0,5.0,176.0,3.0,160.0,225.0,112.0,0.0,0.0,0.0,1747532143.1927912,0.0, 2025-05-17 18:35:43.192
33.0,750000.0,-636827.2169622442,-713426.8240245371,-637275.6823629955,-713080.2825785021,-637236.3432927541,-637409.7034227495,-637554.5427268199,0.182,0.116,-0.978,192.0,0.0,0.0,0.0,0.0,0.0,0.0,0.0,0.0,0.0,1747532143.1929543,0.0, 2025-05-17 18:35:43.192
34.0,750000.0,-637021.855952961,-713645.1558643766,-637470.7683886014,-713297.9885694968,-637430.7140625375,-637604.5212274219,-637749.002903581,0.182,0.116,-0.978,192.0,0.0,0.0,0.0,0.0,0.0,0.0,0.0,0.0,0.0,1747532143.193133,0.0, 2025-05-17 18:35:43.193
35.0,750000.0,-637192.0868387326,-713835.9503550471,-637640.462832506,-713488.7830601672,-637600.8555413312,-637774.4838922601,-637919.2337893527,0.182,0.116,-0.978,192.0,0.0,0.0,0.0,0.0,0.0,0.0,0.0,0.0,0.0,1747532143.1932435,0.0, 2025-05-17 18:35:43.193
36.0,750000.0,-637074.4272559199,-713704.2538767164,-637522.6244357377,-713356.9971748588,-637483.8218073633,-637657.0925303808,-637801.7530204955,0.182,0.116,-0.978,192.0,0.0,0.0,0.0,0.0,0.0,0.0,0.0,0.0,0.0,1747532143.193354,0.0, 2025-05-17 18:35:43.193
37.0,750000.0,-636913.0476609526,-713524.0988164067,-637361.7812826373,-713176.7527075711,-637322.2633984403,-637495.981156347,-637640.6416464617,0.182,0.116,-0.978,192.0,0.0,0.0,0.0,0.0,0.0,0.0,0.0,0.0,0.0,1747532143.1936388,0.0, 2025-05-17 18:35:43.193
38.0,750000.0,-637058.6916278234,-713686.9089230191,-637506.978214619,-713339.4734072058,-637467.1921094885,-637641.4463092621,-637786.3750203103,0.182,0.116,-0.978,192.0,0.0,0.0,0.0,0.0,0.0,0.0,0.0,0.0,0.0,1747532143.1937437,0.0, 2025-05-17 18:35:43.193
39.0,750000.0,-637269.7815024593,-713923.1221584228,-637717.8892752993,-713575.5972356317,-637678.7290190136,-637852.2679629646,-637997.1966740128,0.182,0.116,-0.978,192.0,0.0,0.0,0.0,0.0,0.0,0.0,0.0,0.0,0.0,1747532143.1938632,0.0, 2025-05-17 18:35:43.193
40.0,750000.0,-637196.1995597124,-713841.2253667385,-637644.6649604636,-713493.8792579031,-637606.1305530227,-637779.1330551069,-637923.8829521994,0.182,0.116,-0.978,192.0,0.0,0.0,0.0,0.0,0.0,0.0,0.0,0.0,0.0,1747532143.1939464,0.0, 2025-05-17 18:35:43.193
41.0,750000.0,-636996.7325921933,-713617.5291082298,-637445.5556208558,-713270.1829993944,-637406.2165506145,-637579.5766806098,-637724.1477637468,0.182,0.116,-0.978,192.0,0.0,0.0,0.0,0.0,0.0,0.0,0.0,0.0,0.0,1747532143.194032,0.0, 2025-05-17 18:35:43.194
42.0,750000.0,-637097.2260352643,-713729.7348653955,-637546.1384709047,-713382.1205356265,-637505.8159239073,-637679.4442748361,-637824.2835789066,0.192,0.12,-0.98,192.0,6.0,0.0,3.0,192.0,225.0,96.0,0.0,0.0,0.0,1747532143.1941085,0.0, 2025-05-17 18:35:43.194
43.0,750000.0,-637327.7172240874,-713988.1210312988,-637776.4508457722,-713640.2384805965,-637736.2177057526,-637909.9354636592,-638054.8641747074,0.192,0.12,-0.98,192.0,0.0,0.0,0.0,0.0,0.0,0.0,0.0,0.0,0.0,1747532143.194198,0.0, 2025-05-17 18:35:43.194
44.0,750000.0,-637299.6434330515,-713956.3815541723,-637748.1088338029,-713609.0354453368,-637708.6803565837,-637882.1298935568,-638026.9691976273,0.192,0.12,-0.98,192.0,0.0,0.0,0.0,0.0,0.0,0.0,0.0,0.0,0.0,1747532143.1942828,0.0, 2025-05-17 18:35:43.194
45.0,750000.0,-637094.2756049962,-713726.5162141939,-637542.5621917918,-713379.1701053585,-637503.0443075949,-637676.2256236345,-637821.6013695719,0.192,0.12,-0.98,192.0,0.0,0.0,0.0,0.0,0.0,0.0,0.0,0.0,0.0,1747532143.1943688,0.0, 2025-05-17 18:35:43.194
46.0,750000.0,-637139.6049427516,-713777.478191552,-637588.3385644363,-713430.1320827166,-637548.1948313946,-637721.9125893012,-637867.0201143051,0.192,0.12,-0.98,192.0,0.0,0.0,0.0,0.0,0.0,0.0,0.0,0.0,0.0,1747532143.194456,0.0, 2025-05-17 18:35:43.194
47.0,750000.0,-637386.9046434051,-714054.2821948865,-637835.8170790455,-713706.8466790732,-637795.6733460038,-637969.3911039104,-638114.2304079807,0.192,0.12,-0.98,192.0,0.0,0.0,0.0,0.0,0.0,0.0,0.0,0.0,0.0,1747532143.1945422,0.0, 2025-05-17 18:35:43.194
48.0,750000.0,-637421.2369228884,-714092.548381394,-637869.7023236398,-713745.3810865142,-637830.4526603762,-638003.7233833937,-638148.4732804863,0.192,0.12,-0.98,192.0,0.0,0.0,0.0,0.0,0.0,0.0,0.0,0.0,0.0,1747532143.194654,0.0, 2025-05-17 18:35:43.194
49.0,750000.0,-637215.3326529661,-713862.3254135044,-637663.8874606952,-713515.426339558,-637624.7272044095,-637797.9979274271,-637942.8372314975,0.192,0.12,-0.98,192.0,0.0,0.0,0.0,0.0,0.0,0.0,0.0,0.0,0.0,1747532143.1947455,0.0, 2025-05-17 18:35:43.194
50.0,750000.0,-637203.441524916,-713848.9143668312,-637652.4433675341,-713501.7470719513,-637612.5678554259,-637786.1067993769,-637930.6778825138,0.192,0.12,-0.98,192.0,0.0,0.0,0.0,0.0,0.0,0.0,0.0,0.0,0.0,1747532143.194834,0.0, 2025-05-17 18:35:43.194
51.0,750000.0,-637448.2378301905,-714123.1255678089,-637897.3290797864,-713775.4218310621,-637857.0065327891,-638030.7242906957,-638175.7424087218,0.192,0.12,-0.98,192.0,0.0,0.0,0.0,0.0,0.0,0.0,0.0,0.0,0.0,1747532143.195011,0.0, 2025-05-17 18:35:43.195
52.0,750000.0,-637525.0384241389,-714208.4198246503,-637973.1461969789,-713861.2525297705,-637933.7177197597,-638106.9884427773,-638252.2747817368,0.19,0.122,-0.968,192.0,5.0,240.0,3.0,208.0,225.0,192.0,0.0,0.0,0.0,1747532143.1951015,0.0, 2025-05-17 18:35:43.195
53.0,750000.0,-637340.949456805,-714002.7837756615,-637789.2360436006,-713655.2588528703,-637749.986380337,-637923.078289399,-638068.1858144029,0.19,0.122,-0.968,192.0,0.0,0.0,0.0,0.0,0.0,0.0,0.0,0.0,0.0,1747532143.1951976,0.0, 2025-05-17 18:35:43.195
54.0,750000.0,-637259.5891069877,-713911.6780652617,-637708.2333216945,-713564.1531424705,-637668.1789956307,-637841.9861605151,-637986.9148715633,0.19,0.122,-0.968,192.0,0.0,0.0,0.0,0.0,0.0,0.0,0.0,0.0,0.0,1747532143.1953397,0.0, 2025-05-17 18:35:43.195
55.0,750000.0,-637482.0336678069,-714160.7659054716,-637930.6778825138,-713813.1515757027,-637890.7129634276,-638064.6989422678,-638209.3594323825,0.19,0.122,-0.968,192.0,0.0,0.0,0.0,0.0,0.0,0.0,0.0,0.0,0.0,1747532143.1954305,0.0, 2025-05-17 18:35:43.195
56.0,750000.0,-637610.7797158695,-714304.8899537195,-638059.2451166207,-713957.5438448839,-638019.9060463794,-638193.4449903304,-638338.1054804451,0.19,0.122,-0.968,192.0,0.0,0.0,0.0,0.0,0.0,0.0,0.0,0.0,0.0,1747532143.1955168,0.0, 2025-05-17 18:35:43.195
57.0,750000.0,-637458.966667529,-714135.1061028369,-637907.521475258,-713787.9388079571,-637868.540032928,-638041.4531280342,-638186.2924321047,0.19,0.122,-0.968,192.0,0.0,0.0,0.0,0.0,0.0,0.0,0.0,0.0,0.0,1747532143.1956131,0.0, 2025-05-17 18:35:43.195
58.0,750000.0,-637328.7007008435,-713989.4621359662,-637777.2555085726,-713641.8478061972,-637737.9164383312,-637910.8295334375,-638056.115872397,0.19,0.122,-0.968,192.0,0.0,0.0,0.0,0.0,0.0,0.0,0.0,0.0,0.0,1747532143.195706,0.0, 2025-05-17 18:35:43.195
59.0,750000.0,-637514.0413658669,-714196.9757314892,-637962.9538015072,-713849.0931807868,-637923.1676963768,-638096.5278263722,-638241.4565374204,0.19,0.122,-0.968,192.0,0.0,0.0,0.0,0.0,0.0,0.0,0.0,0.0,0.0,1747532143.1957877,0.0, 2025-05-17 18:35:43.195
60.0,750000.0,-637692.2294726645,-714396.8003269196,-638141.0525013271,-714048.560148306,-638101.5346171302,-638274.8053401477,-638419.9128651515,0.19,0.122,-0.968,192.0,0.0,0.0,0.0,0.0,0.0,0.0,0.0,0.0,0.0,1747532143.1958663,0.0, 2025-05-17 18:35:43.195
61.0,750000.0,-637587.2656807024,-714278.7831161956,-638035.5522674981,-713930.989972471,-637996.4814181902,-638169.4839202743,-638314.8596662116,0.19,0.122,-0.968,192.0,0.0,0.0,0.0,0.0,0.0,0.0,0.0,0.0,0.0,1747532143.1959171,0.0, 2025-05-17 18:35:43.195
62.0,750000.0,-637419.7170042655,-714091.7437185936,-637868.4506259502,-713743.6823539356,-637828.9327417533,-638002.4716857042,-638147.132175819,0.192,0.12,-0.944,192.0,6.0,0.0,3.0,192.0,226.0,128.0,0.0,0.0,0.0,1747532143.1959665,0.0, 2025-05-17 18:35:43.195
63.0,750000.0,-637564.019866469,-714253.3915344944,-638013.2005230428,-713905.0619489029,-637973.2356039567,-638146.6851409299,-638291.6138519781,0.192,0.12,-0.944,192.0,0.0,0.0,0.0,0.0,0.0,0.0,0.0,0.0,0.0,1747532143.1960528,0.0, 2025-05-17 18:35:43.196
64.0,750000.0,-637770.4605782581,-714484.0615372731,-638219.7306418099,-714136.3578005264,-638179.8551297016,-638353.3046666747,-638498.0545637673,0.192,0.12,-0.944,192.0,0.0,0.0,0.0,0.0,0.0,0.0,0.0,0.0,0.0,1747532143.196102,0.0, 2025-05-17 18:35:43.196
65.0,750000.0,-637702.9583100032,-714408.3338270586,-638151.5131177322,-714060.540683334,-638112.4422684243,-638285.4447705084,-638430.3734815567,0.192,0.12,-0.944,192.0,0.0,0.0,0.0,0.0,0.0,0.0,0.0,0.0,0.0,1747532143.1961508,0.0, 2025-05-17 18:35:43.196
66.0,750000.0,-637500.8091331493,-714181.9553592153,-637949.7215687897,-713834.1622154907,-637909.9354636592,-638083.0273727211,-638228.0454907472,0.192,0.12,-0.944,192.0,0.0,0.0,0.0,0.0,0.0,0.0,0.0,0.0,0.0,1747532143.1962323,0.0, 2025-05-17 18:35:43.196
67.0,750000.0,-637586.8186458134,-714278.3360813066,-638035.9993023872,-713930.5429375819,-637995.587348412,-638169.2156993408,-638314.5020383003,0.192,0.12,-0.944,192.0,0.0,0.0,0.0,0.0,0.0,0.0,0.0,0.0,0.0,1747532143.196282,0.0, 2025-05-17 18:35:43.196
68.0,750000.0,-637826.1611254407,-714546.1099798811,-638275.162968059,-714198.58505709,-638235.0192350172,-638408.4687719904,-638553.9339249056,0.192,0.12,-0.944,192.0,0.0,0.0,0.0,0.0,0.0,0.0,0.0,0.0,0.0,1747532143.1963308,0.0, 2025-05-17 18:35:43.196
69.0,750000.0,-637814.3594043683,-714533.145968097,-638263.2718400088,-714185.5316383281,-638224.0221767452,-638396.7564578959,-638541.9533898776,0.192,0.12,-0.944,192.0,0.0,0.0,0.0,0.0,0.0,0.0,0.0,0.0,0.0,1747532143.196426,0.0, 2025-05-17 18:35:43.196
70.0,750000.0,-637599.9614715531,-714293.4458605583,-638048.9633141713,-713945.5633098559,-638009.4454299744,-638182.2691181027,-638327.9130849735,0.192,0.12,-0.944,192.0,0.0,0.0,0.0,0.0,0.0,0.0,0.0,0.0,0.0,1747532143.1964777,0.0, 2025-05-17 18:35:43.196
71.0,750000.0,-637624.6377974317,-714321.0726167051,-638073.4608260943,-713973.011252047,-638033.4065000304,-638207.0348509592,-638352.4105968965,0.192,0.12,-0.944,192.0,0.0,0.0,0.0,0.0,0.0,0.0,0.0,0.0,0.0,1747532143.196527,0.0, 2025-05-17 18:35:43.196
72.0,750000.0,-637868.8976608394,-714595.0155967493,-638318.167724391,-714246.5966041799,-638278.1133983271,-638451.7417492559,-638597.0280882154,0.196,0.114,-0.95,192.0,6.0,32.0,3.0,144.0,226.0,80.0,0.0,0.0,0.0,1747532143.196576,0.0, 2025-05-17 18:35:43.196
73.0,750000.0,-637908.057917125,-714638.4673879704,-638356.9703527654,-714290.6742442459,-638317.7206895018,-638491.0808194972,-638636.1883445011,0.196,0.114,-0.95,192.0,0.0,0.0,0.0,0.0,0.0,0.0,0.0,0.0,0.0,1747532143.1966288,0.0, 2025-05-17 18:35:43.196
74.0,750000.0,-637707.2498449385,-714412.7147689718,-638155.625838712,-714065.547474092,-638116.7338033598,-638289.4680845104,-638434.7544234699,0.196,0.114,-0.95,192.0,0.0,0.0,0.0,0.0,0.0,0.0,0.0,0.0,0.0,1747532143.1966782,0.0, 2025-05-17 18:35:43.196
75.0,750000.0,-637671.7552747435,-714372.660442908,-638120.2206754948,-714025.6719619838,-638080.3451633865,-638254.2417352488,-638399.0810393192,0.196,0.114,-0.95,192.0,0.0,0.0,0.0,0.0,0.0,0.0,0.0,0.0,0.0,1747532143.1967268,0.0, 2025-05-17 18:35:43.196
76.0,750000.0,-637909.1308008588,-714639.0038298373,-638357.9538295214,-714291.2106861128,-638317.9889104353,-638491.7960753199,-638636.6353793902,0.196,0.114,-0.95,192.0,0.0,0.0,0.0,0.0,0.0,0.0,0.0,0.0,0.0,1747532143.1967752,0.0, 2025-05-17 18:35:43.196
77.0,750000.0,-638004.5280461941,-714745.9345753115,-638453.0828539232,-714397.8732106535,-638414.190818571,-638587.193320655,-638732.3902526367,0.196,0.114,-0.95,192.0,0.0,0.0,0.0,0.0,0.0,0.0,0.0,0.0,0.0,1747532143.196824,0.0, 2025-05-17 18:35:43.196
78.0,750000.0,-637829.9162185093,-714549.8650729496,-638278.1133983271,-714202.5189641141,-638239.4895839083,-638412.4026790146,-638557.4207970406,0.196,0.114,-0.95,192.0,0.0,0.0,0.0,0.0,0.0,0.0,0.0,0.0,0.0,1747532143.1969016,0.0, 2025-05-17 18:35:43.196
79.0,750000.0,-637736.038891797,-714444.9906879653,-638184.4148855704,-714097.2869512185,-638144.7181874178,-638318.6147592801,-638463.9010982396,0.196,0.114,-0.95,192.0,0.0,0.0,0.0,0.0,0.0,0.0,0.0,0.0,0.0,1747532143.1969512,0.0, 2025-05-17 18:35:43.196
80.0,750000.0,-637949.6321618119,-714684.8696094597,-638398.2763765188,-714336.8082448016,-638358.5796783662,-638532.5656572063,-638677.9414031436,0.196,0.114,-0.95,192.0,0.0,0.0,0.0,0.0,0.0,0.0,0.0,0.0,0.0,1747532143.197,0.0, 2025-05-17 18:35:43.197
81.0,750000.0,-638101.087582241,-714853.8487975418,-638549.5529829924,-714505.9662468394,-638510.3927267067,-638683.6634497242,-638828.6815677502,0.196,0.114,-0.95,192.0,0.0,0.0,0.0,0.0,0.0,0.0,0.0,0.0,0.0,1747532143.197078,0.0, 2025-05-17 18:35:43.197
82.0,750000.0,-637948.6486850559,-714683.0814699032,-638397.0246788294,-714335.5565471121,-638358.4902713883,-638531.224552539,-638676.242670565,0.2,0.118,-0.952,192.0,6.0,64.0,3.0,176.0,226.0,64.0,0.0,0.0,0.0,1747532143.1971276,0.0, 2025-05-17 18:35:43.197
83.0,750000.0,-637794.1534273807,-714510.2577817747,-638242.618828132,-714162.4646380502,-638203.4585718464,-638376.5504809082,-638521.74741289,0.2,0.118,-0.952,192.0,0.0,0.0,0.0,0.0,0.0,0.0,0.0,0.0,0.0,1747532143.1971805,0.0, 2025-05-17 18:35:43.197
84.0,750000.0,-637983.3385924505,-714722.2417261889,-638432.2510280908,-714374.0909545531,-638392.2861090048,-638565.9144599336,-638711.1113919152,0.2,0.118,-0.952,192.0,0.0,0.0,0.0,0.0,0.0,0.0,0.0,0.0,0.0,1747532143.197244,0.0, 2025-05-17 18:35:43.197
85.0,750000.0,-638180.0339436572,-714942.5405195404,-638629.214600231,-714594.3003409267,-638589.6073090562,-638762.9674390516,-638907.6279291663,0.2,0.118,-0.952,192.0,0.0,0.0,0.0,0.0,0.0,0.0,0.0,0.0,0.0,1747532143.1972928,0.0, 2025-05-17 18:35:43.197
86.0,750000.0,-638068.0070004473,-714816.7449017459,-638516.4724011985,-714468.9517580214,-638478.0274007353,-638650.7616818859,-638795.779799912,0.2,0.118,-0.952,192.0,0.0,0.0,0.0,0.0,0.0,0.0,0.0,0.0,0.0,1747532143.1973417,0.0, 2025-05-17 18:35:43.197
87.0,750000.0,-637878.6430214219,-714604.8503643096,-638326.8402012397,-714256.6101856959,-638288.126979843,-638461.3977028606,-638606.8628557757,0.2,0.118,-0.952,192.0,0.0,0.0,0.0,0.0,0.0,0.0,0.0,0.0,0.0,1747532143.1973903,0.0, 2025-05-17 18:35:43.197
88.0,750000.0,-638009.62424393,-714751.6566218921,-638458.3578656147,-714402.8800014115,-638418.5717604843,-638592.200111413,-638737.3076364169,0.2,0.118,-0.952,192.0,0.0,0.0,0.0,0.0,0.0,0.0,0.0,0.0,0.0,1747532143.197456,0.0, 2025-05-17 18:35:43.197
